File: N2_REF_ISOTHERMS/AIF/n2_cubtc_300K.aif
data_N2_CuBTC_300K
_exptl_date
_exptl_temperature 300
_adsnt_material_id CuBTC
_simltn_adsorbent_filename 'data.CuBTC_CaleroIV_rep111'
_units_temperature K
_units_fugacity BAR
_units_pressure BAR
_units_loading MOL-PER-KiloGM
_units_qst KiloJ-PER-MOL
_exptl_isotherm_type absolute
_exptl_adsorptive_name 'Nitrogen'
_simltn_forcefield_adsorptive 'TraPPE N2; 12ang linear-force shift'
_simltn_forcefield_adsorbent 'see adsorbent file'

loop_
_adsorp_fugacity
_adsorp_pressure
_adsorp_amount
_adsorp_amount_uncertainty
_adsorp_qst
_adsorp_qst_uncertainty
7.478e-03   7.480e-03   1.867e-03   5.267e-05   1.286e+01   2.738e-02
8.802e-03   8.804e-03   2.198e-03   6.187e-05   1.286e+01   2.726e-02
1.036e-02   1.036e-02   2.586e-03   7.267e-05   1.286e+01   2.712e-02
1.219e-02   1.220e-02   3.044e-03   8.531e-05   1.286e+01   2.696e-02
1.435e-02   1.435e-02   3.582e-03   1.001e-04   1.286e+01   2.677e-02
1.689e-02   1.689e-02   4.215e-03   1.174e-04   1.286e+01   2.655e-02
1.988e-02   1.988e-02   4.960e-03   1.376e-04   1.286e+01   2.629e-02
2.339e-02   2.340e-02   5.837e-03   1.612e-04   1.285e+01   2.598e-02
2.753e-02   2.754e-02   6.868e-03   1.887e-04   1.285e+01   2.563e-02
3.240e-02   3.241e-02   8.081e-03   2.207e-04   1.285e+01   2.522e-02
3.814e-02   3.815e-02   9.508e-03   2.577e-04   1.285e+01   2.474e-02
4.488e-02   4.490e-02   1.119e-02   3.006e-04   1.284e+01   2.418e-02
5.283e-02   5.284e-02   1.316e-02   3.502e-04   1.284e+01   2.354e-02
6.217e-02   6.219e-02   1.548e-02   4.071e-04   1.284e+01   2.280e-02
7.317e-02   7.319e-02   1.821e-02   4.724e-04   1.283e+01   2.196e-02
8.612e-02   8.614e-02   2.142e-02   5.469e-04   1.282e+01   2.099e-02
1.014e-01   1.014e-01   2.519e-02   6.314e-04   1.282e+01   1.989e-02
1.193e-01   1.193e-01   2.962e-02   7.266e-04   1.281e+01   1.864e-02
1.404e-01   1.404e-01   3.482e-02   8.332e-04   1.280e+01   1.724e-02
1.652e-01   1.653e-01   4.092e-02   9.514e-04   1.279e+01   1.568e-02
1.945e-01   1.945e-01   4.808e-02   1.081e-03   1.277e+01   1.394e-02
2.289e-01   2.289e-01   5.648e-02   1.222e-03   1.276e+01   1.202e-02
2.694e-01   2.694e-01   6.632e-02   1.372e-03   1.274e+01   9.938e-03
3.171e-01   3.171e-01   7.784e-02   1.528e-03   1.272e+01   7.689e-03
3.732e-01   3.732e-01   9.131e-02   1.687e-03   1.270e+01   5.319e-03
4.392e-01   4.392e-01   1.071e-01   1.842e-03   1.267e+01   3.002e-03
5.169e-01   5.169e-01   1.254e-01   1.983e-03   1.264e+01   2.000e-03
6.083e-01   6.084e-01   1.469e-01   2.098e-03   1.260e+01   3.937e-03
7.160e-01   7.160e-01   1.718e-01   2.171e-03   1.256e+01   6.670e-03
8.427e-01   8.426e-01   2.008e-01   2.182e-03   1.251e+01   9.464e-03
9.918e-01   9.917e-01   2.345e-01   2.111e-03   1.246e+01   1.208e-02
1.167e+00   1.167e+00   2.736e-01   1.945e-03   1.239e+01   1.431e-02
1.374e+00   1.373e+00   3.187e-01   1.688e-03   1.233e+01   1.598e-02
1.617e+00   1.616e+00   3.709e-01   1.383e-03   1.225e+01   1.698e-02
1.903e+00   1.902e+00   4.310e-01   1.121e-03   1.216e+01   1.718e-02
2.240e+00   2.239e+00   5.001e-01   1.015e-03   1.206e+01   1.641e-02
2.636e+00   2.635e+00   5.793e-01   1.060e-03   1.196e+01   1.434e-02
3.102e+00   3.100e+00   6.698e-01   1.120e-03   1.184e+01   1.070e-02
3.651e+00   3.649e+00   7.730e-01   1.123e-03   1.172e+01   6.555e-03
4.297e+00   4.294e+00   8.901e-01   1.187e-03   1.159e+01   8.282e-03
5.058e+00   5.053e+00   1.023e+00   1.622e-03   1.146e+01   1.497e-02
5.952e+00   5.946e+00   1.172e+00   2.489e-03   1.133e+01   2.037e-02
7.006e+00   6.997e+00   1.341e+00   3.463e-03   1.120e+01   2.128e-02
8.245e+00   8.233e+00   1.530e+00   4.138e-03   1.108e+01   1.677e-02
9.704e+00   9.688e+00   1.742e+00   4.282e-03   1.097e+01   1.310e-02
1.142e+01   1.140e+01   1.979e+00   3.961e-03   1.088e+01   1.732e-02
1.344e+01   1.341e+01   2.241e+00   3.533e-03   1.079e+01   1.881e-02
1.582e+01   1.578e+01   2.533e+00   3.488e-03   1.072e+01   1.283e-02
1.862e+01   1.856e+01   2.857e+00   3.582e-03   1.068e+01   1.371e-02
2.191e+01   2.184e+01   3.214e+00   4.122e-03   1.066e+01   1.740e-02
2.579e+01   2.568e+01   3.604e+00   5.155e-03   1.066e+01   1.260e-02
3.035e+01   3.020e+01   4.025e+00   6.464e-03   1.067e+01   1.170e-02
3.573e+01   3.551e+01   4.478e+00   7.258e-03   1.071e+01   7.653e-03
4.205e+01   4.174e+01   4.961e+00   7.201e-03   1.077e+01   1.627e-02
4.949e+01   4.904e+01   5.471e+00   6.369e-03   1.085e+01   1.423e-02
5.824e+01   5.760e+01   6.004e+00   4.847e-03   1.092e+01   9.332e-03
6.855e+01   6.762e+01   6.552e+00   3.452e-03   1.101e+01   8.994e-03
8.068e+01   7.932e+01   7.114e+00   2.267e-03   1.112e+01   8.993e-03
9.495e+01   9.295e+01   7.686e+00   1.661e-03   1.125e+01   2.729e-02
1.117e+02   1.088e+02   8.261e+00   2.619e-03   1.137e+01   2.967e-02
1.315e+02   1.272e+02   8.832e+00   3.080e-03   1.149e+01   1.798e-02
1.548e+02   1.484e+02   9.397e+00   4.427e-03   1.158e+01   3.173e-02
1.822e+02   1.727e+02   9.953e+00   8.270e-03   1.169e+01   1.879e-02
2.144e+02   2.004e+02   1.050e+01   1.168e-02   1.183e+01   3.700e-02
2.524e+02   2.318e+02   1.103e+01   1.165e-02   1.196e+01   3.702e-02
2.970e+02   2.671e+02   1.155e+01   9.408e-03   1.206e+01   1.278e-02
3.496e+02   3.064e+02   1.205e+01   7.456e-03   1.215e+01   3.660e-02
4.114e+02   3.497e+02   1.254e+01   8.809e-03   1.224e+01   3.625e-02
4.842e+02   3.971e+02   1.300e+01   1.111e-02   1.232e+01   2.268e-02
5.699e+02   4.484e+02   1.345e+01   1.126e-02   1.241e+01   3.421e-02
6.707e+02   5.036e+02   1.389e+01   9.580e-03   1.252e+01   2.604e-02
7.894e+02   5.625e+02   1.430e+01   8.254e-03   1.260e+01   4.500e-02
9.290e+02   6.250e+02   1.470e+01   8.602e-03   1.259e+01   4.402e-02
1.093e+03   6.909e+02   1.508e+01   8.571e-03   1.255e+01   3.207e-02
1.287e+03   7.600e+02   1.545e+01   6.868e-03   1.250e+01   6.691e-02
1.515e+03   8.321e+02   1.580e+01   4.642e-03   1.248e+01   6.099e-02
1.783e+03   9.071e+02   1.614e+01   2.444e-03   1.247e+01   5.096e-02
2.098e+03   9.849e+02   1.646e+01   5.472e-03   1.246e+01   4.318e-02
2.469e+03   1.065e+03   1.678e+01   9.230e-03   1.243e+01   7.478e-02
2.906e+03   1.148e+03   1.708e+01   1.236e-02   1.237e+01   1.261e-01
3.420e+03   1.233e+03   1.736e+01   1.503e-02   1.229e+01   1.070e-01
4.025e+03   1.321e+03   1.764e+01   1.518e-02   1.219e+01   5.619e-02
4.738e+03   1.410e+03   1.790e+01   1.168e-02   1.209e+01   1.598e-01
5.576e+03   1.502e+03   1.815e+01   7.790e-03   1.201e+01   2.003e-01
6.563e+03   1.595e+03   1.840e+01   8.618e-03   1.191e+01   1.386e-01
7.724e+03   1.691e+03   1.864e+01   1.059e-02   1.180e+01   7.765e-02
9.090e+03   1.788e+03   1.887e+01   1.123e-02   1.166e+01   1.645e-01
1.070e+04   1.887e+03   1.909e+01   1.126e-02   1.152e+01   1.753e-01
1.259e+04   1.987e+03   1.931e+01   1.034e-02   1.137e+01   1.086e-01
1.482e+04   2.090e+03   1.952e+01   7.618e-03   1.122e+01   5.933e-02
1.744e+04   2.193e+03   1.972e+01   6.386e-03   1.105e+01   1.231e-01
2.053e+04   2.299e+03   1.992e+01   9.015e-03   1.092e+01   1.431e-01
2.416e+04   2.405e+03   2.011e+01   1.099e-02   1.080e+01   8.545e-02
2.844e+04   2.513e+03   2.029e+01   1.177e-02   1.068e+01   1.010e-01
3.347e+04   2.623e+03   2.047e+01   1.351e-02   1.050e+01   1.291e-01
3.939e+04   2.733e+03   2.065e+01   1.690e-02   1.027e+01   6.534e-02
4.636e+04   2.845e+03   2.082e+01   2.064e-02   1.002e+01   1.145e-01
5.456e+04   2.959e+03   2.099e+01   2.379e-02   9.786e+00   1.995e-01
6.421e+04   3.073e+03   2.115e+01   2.656e-02   9.575e+00   1.834e-01
7.557e+04   3.189e+03   2.131e+01   2.904e-02   9.383e+00   1.519e-01