File: N2_REF_ISOTHERMS/AIF/n2_cubtc_350K.aif
data_N2_CuBTC_350K
_exptl_date
_exptl_temperature 350
_adsnt_material_id CuBTC
_adsnt_filename 'data.CuBTC_CaleroIV_rep111'
_units_temperature K
_units_fugacity BAR
_units_pressure BAR
_units_loading MOL-PER-KiloGM
_units_qst KiloJ-PER-MOL
_exptl_isotherm_type absolute
_exptl_adsorptive_name 'Nitrogen'
_forcefield_adsorptive 'TraPPE N2; 12ang linear-force shift'
_forcefield_adsnt 'see adsorbent file'

loop_
_adsorp_fugacity
_adsorp_pressure
_adsorp_amount
_adsorp_amount_uncertainty
_adsorp_qst
_adsorp_qst_uncertainty
4.864e-02   4.864e-02   6.019e-03   8.458e-05   1.209e+01   4.090e-02
5.621e-02   5.621e-02   6.954e-03   9.618e-05   1.209e+01   4.046e-02
6.496e-02   6.496e-02   8.033e-03   1.092e-04   1.208e+01   3.996e-02
7.507e-02   7.507e-02   9.279e-03   1.239e-04   1.208e+01   3.938e-02
8.676e-02   8.676e-02   1.072e-02   1.404e-04   1.208e+01   3.873e-02
1.003e-01   1.003e-01   1.238e-02   1.591e-04   1.208e+01   3.798e-02
1.159e-01   1.159e-01   1.430e-02   1.805e-04   1.208e+01   3.713e-02
1.339e-01   1.339e-01   1.651e-02   2.052e-04   1.207e+01   3.616e-02
1.548e-01   1.548e-01   1.906e-02   2.341e-04   1.207e+01   3.507e-02
1.789e-01   1.789e-01   2.200e-02   2.686e-04   1.207e+01   3.385e-02
2.067e-01   2.067e-01   2.540e-02   3.105e-04   1.206e+01   3.248e-02
2.389e-01   2.389e-01   2.932e-02   3.620e-04   1.206e+01   3.097e-02
2.761e-01   2.761e-01   3.383e-02   4.260e-04   1.206e+01   2.931e-02
3.191e-01   3.190e-01   3.904e-02   5.055e-04   1.205e+01   2.752e-02
3.687e-01   3.687e-01   4.503e-02   6.036e-04   1.204e+01   2.562e-02
4.261e-01   4.261e-01   5.194e-02   7.230e-04   1.204e+01   2.366e-02
4.925e-01   4.924e-01   5.990e-02   8.659e-04   1.203e+01   2.169e-02
5.691e-01   5.690e-01   6.907e-02   1.033e-03   1.202e+01   1.980e-02
6.577e-01   6.576e-01   7.963e-02   1.223e-03   1.201e+01   1.812e-02
7.601e-01   7.600e-01   9.179e-02   1.432e-03   1.199e+01   1.677e-02
8.785e-01   8.782e-01   1.058e-01   1.656e-03   1.198e+01   1.584e-02
1.015e+00   1.015e+00   1.219e-01   1.885e-03   1.196e+01   1.536e-02
1.173e+00   1.173e+00   1.405e-01   2.108e-03   1.194e+01   1.522e-02
1.356e+00   1.355e+00   1.618e-01   2.317e-03   1.192e+01   1.524e-02
1.567e+00   1.566e+00   1.863e-01   2.500e-03   1.190e+01   1.517e-02
1.811e+00   1.810e+00   2.144e-01   2.655e-03   1.187e+01   1.479e-02
2.093e+00   2.091e+00   2.467e-01   2.785e-03   1.184e+01   1.391e-02
2.419e+00   2.417e+00   2.835e-01   2.905e-03   1.180e+01   1.240e-02
2.795e+00   2.793e+00   3.256e-01   3.039e-03   1.176e+01   1.026e-02
3.231e+00   3.227e+00   3.735e-01   3.208e-03   1.172e+01   7.683e-03
3.734e+00   3.728e+00   4.279e-01   3.415e-03   1.167e+01   5.355e-03
4.315e+00   4.308e+00   4.897e-01   3.635e-03   1.162e+01   4.732e-03
4.987e+00   4.977e+00   5.599e-01   3.800e-03   1.156e+01   5.921e-03
5.763e+00   5.750e+00   6.394e-01   3.791e-03   1.150e+01   6.969e-03
6.660e+00   6.643e+00   7.296e-01   3.442e-03   1.144e+01   6.848e-03
7.697e+00   7.674e+00   8.314e-01   2.634e-03   1.137e+01   5.988e-03
8.895e+00   8.865e+00   9.461e-01   1.815e-03   1.130e+01   6.381e-03
1.028e+01   1.024e+01   1.075e+00   2.710e-03   1.122e+01   8.246e-03
1.188e+01   1.183e+01   1.219e+00   4.706e-03   1.115e+01   9.556e-03
1.373e+01   1.366e+01   1.380e+00   6.738e-03   1.108e+01   1.036e-02
1.587e+01   1.577e+01   1.558e+00   8.568e-03   1.101e+01   1.055e-02
1.834e+01   1.821e+01   1.756e+00   9.955e-03   1.095e+01   8.385e-03
2.119e+01   2.102e+01   1.973e+00   1.063e-02   1.089e+01   6.225e-03
2.449e+01   2.427e+01   2.212e+00   1.047e-02   1.084e+01   5.891e-03
2.831e+01   2.801e+01   2.472e+00   9.214e-03   1.079e+01   4.486e-03
3.271e+01   3.231e+01   2.756e+00   6.712e-03   1.076e+01   5.127e-03
3.780e+01   3.727e+01   3.065e+00   4.159e-03   1.075e+01   9.251e-03
4.369e+01   4.297e+01   3.398e+00   3.230e-03   1.075e+01   9.559e-03
5.049e+01   4.953e+01   3.754e+00   3.125e-03   1.076e+01   7.358e-03
5.835e+01   5.705e+01   4.133e+00   3.909e-03   1.077e+01   1.149e-02
6.744e+01   6.569e+01   4.534e+00   5.508e-03   1.080e+01   6.126e-03
7.794e+01   7.558e+01   4.956e+00   6.787e-03   1.085e+01   1.321e-02
9.007e+01   8.690e+01   5.395e+00   7.475e-03   1.091e+01   1.871e-02
1.041e+02   9.981e+01   5.849e+00   5.786e-03   1.099e+01   1.702e-02
1.203e+02   1.145e+02   6.317e+00   4.652e-03   1.108e+01   1.464e-02
1.390e+02   1.312e+02   6.796e+00   7.647e-03   1.116e+01   1.290e-02
1.607e+02   1.502e+02   7.282e+00   7.988e-03   1.125e+01   1.919e-02
1.857e+02   1.715e+02   7.770e+00   5.618e-03   1.134e+01   1.456e-02
2.146e+02   1.955e+02   8.256e+00   3.825e-03   1.144e+01   1.113e-02
2.480e+02   2.223e+02   8.742e+00   5.730e-03   1.155e+01   6.110e-03
2.866e+02   2.521e+02   9.226e+00   5.010e-03   1.165e+01   1.676e-02
3.312e+02   2.852e+02   9.707e+00   3.578e-03   1.173e+01   2.290e-02
3.828e+02   3.215e+02   1.018e+01   6.303e-03   1.182e+01   2.478e-02
4.424e+02   3.612e+02   1.064e+01   8.594e-03   1.192e+01   1.978e-02
5.113e+02   4.043e+02   1.110e+01   1.126e-02   1.203e+01   3.069e-02
5.909e+02   4.509e+02   1.154e+01   1.558e-02   1.211e+01   4.119e-02
6.828e+02   5.009e+02   1.197e+01   1.610e-02   1.218e+01   2.877e-02
7.892e+02   5.544e+02   1.239e+01   1.057e-02   1.222e+01   1.864e-02
9.120e+02   6.111e+02   1.280e+01   5.299e-03   1.226e+01   2.959e-02
1.054e+03   6.710e+02   1.319e+01   7.178e-03   1.231e+01   6.482e-02
1.218e+03   7.341e+02   1.358e+01   7.639e-03   1.236e+01   4.195e-02
1.408e+03   8.002e+02   1.396e+01   5.856e-03   1.242e+01   3.097e-02
1.627e+03   8.692e+02   1.432e+01   7.531e-03   1.249e+01   7.717e-02
1.880e+03   9.409e+02   1.467e+01   1.270e-02   1.251e+01   7.939e-02
2.173e+03   1.015e+03   1.502e+01   1.660e-02   1.248e+01   5.361e-02
2.511e+03   1.092e+03   1.535e+01   1.671e-02   1.242e+01   3.812e-02
2.902e+03   1.172e+03   1.567e+01   1.269e-02   1.235e+01   8.891e-02
3.354e+03   1.254e+03   1.597e+01   5.900e-03   1.230e+01   1.199e-01
3.876e+03   1.338e+03   1.627e+01   1.922e-03   1.225e+01   8.711e-02
4.480e+03   1.424e+03   1.656e+01   4.917e-03   1.221e+01   2.644e-02
5.177e+03   1.513e+03   1.684e+01   6.252e-03   1.217e+01   8.755e-02
5.983e+03   1.603e+03   1.711e+01   7.278e-03   1.211e+01   1.151e-01
6.914e+03   1.696e+03   1.737e+01   7.473e-03   1.203e+01   1.044e-01
7.991e+03   1.790e+03   1.762e+01   9.510e-03   1.194e+01   1.405e-01
9.235e+03   1.886e+03   1.787e+01   1.499e-02   1.184e+01   2.204e-01
1.067e+04   1.984e+03   1.811e+01   2.031e-02   1.172e+01   2.597e-01
1.233e+04   2.084e+03   1.834e+01   2.288e-02   1.158e+01   2.073e-01
1.425e+04   2.185e+03   1.856e+01   2.197e-02   1.143e+01   1.613e-01
1.647e+04   2.288e+03   1.878e+01   1.820e-02   1.127e+01   2.580e-01
1.904e+04   2.392e+03   1.899e+01   1.290e-02   1.112e+01   2.879e-01
2.200e+04   2.498e+03   1.919e+01   7.572e-03   1.099e+01   2.253e-01
2.543e+04   2.605e+03   1.938e+01   3.802e-03   1.084e+01   1.737e-01
2.939e+04   2.714e+03   1.957e+01   4.033e-03   1.069e+01   1.699e-01
3.396e+04   2.824e+03   1.976e+01   6.106e-03   1.051e+01   1.543e-01
3.925e+04   2.935e+03   1.994e+01   8.106e-03   1.034e+01   1.507e-01
4.536e+04   3.048e+03   2.013e+01   1.031e-02   1.018e+01   1.733e-01
5.242e+04   3.162e+03   2.030e+01   1.295e-02   1.004e+01   1.464e-01
6.058e+04   3.277e+03   2.048e+01   1.545e-02   9.900e+00   6.047e-02
7.001e+04   3.393e+03   2.065e+01   1.663e-02   9.745e+00   4.628e-02
8.091e+04   3.511e+03   2.081e+01   1.570e-02   9.574e+00   7.560e-02