File: N2_REF_ISOTHERMS/AIF/n2_irmof1_300K.aif
data_N2_IRMOF1_300K
_exptl_date
_exptl_temperature 300
_adsnt_material_id IRMOF-1
_adsnt_filename 'data.IRMOF1_mCBAC_rep111'
_units_temperature K
_units_fugacity BAR
_units_pressure BAR
_units_loading MOL-PER-KiloGM
_units_qst KiloJ-PER-MOL
_exptl_isotherm_type absolute
_exptl_adsorptive_name 'Nitrogen'
_forcefield_adsorptive 'TraPPE N2; 12ang linear-force shift'
_forcefield_adsnt 'see adsorbent file'

loop_
_adsorp_fugacity
_adsorp_pressure
_adsorp_amount
_adsorp_amount_uncertainty
_adsorp_qst
_adsorp_qst_uncertainty
7.478e-03   7.480e-03   1.245e-03   2.354e-05   7.775e+00   5.505e-03
8.802e-03   8.804e-03   1.465e-03   2.767e-05   7.775e+00   5.490e-03
1.036e-02   1.036e-02   1.724e-03   3.250e-05   7.775e+00   5.472e-03
1.219e-02   1.220e-02   2.030e-03   3.817e-05   7.775e+00   5.452e-03
1.435e-02   1.435e-02   2.389e-03   4.482e-05   7.775e+00   5.428e-03
1.689e-02   1.689e-02   2.811e-03   5.259e-05   7.775e+00   5.400e-03
1.988e-02   1.988e-02   3.309e-03   6.168e-05   7.775e+00   5.367e-03
2.339e-02   2.340e-02   3.894e-03   7.231e-05   7.775e+00   5.329e-03
2.753e-02   2.754e-02   4.583e-03   8.470e-05   7.775e+00   5.283e-03
3.240e-02   3.241e-02   5.394e-03   9.913e-05   7.775e+00   5.230e-03
3.814e-02   3.815e-02   6.348e-03   1.159e-04   7.775e+00   5.168e-03
4.488e-02   4.490e-02   7.471e-03   1.354e-04   7.776e+00   5.095e-03
5.283e-02   5.284e-02   8.792e-03   1.579e-04   7.776e+00   5.009e-03
6.217e-02   6.219e-02   1.035e-02   1.838e-04   7.776e+00   4.910e-03
7.317e-02   7.319e-02   1.218e-02   2.137e-04   7.776e+00   4.793e-03
8.612e-02   8.614e-02   1.433e-02   2.478e-04   7.776e+00   4.658e-03
1.014e-01   1.014e-01   1.687e-02   2.867e-04   7.776e+00   4.500e-03
1.193e-01   1.193e-01   1.985e-02   3.308e-04   7.777e+00   4.317e-03
1.404e-01   1.404e-01   2.336e-02   3.803e-04   7.777e+00   4.105e-03
1.652e-01   1.653e-01   2.749e-02   4.355e-04   7.777e+00   3.861e-03
1.945e-01   1.945e-01   3.235e-02   4.966e-04   7.778e+00   3.581e-03
2.289e-01   2.289e-01   3.807e-02   5.633e-04   7.778e+00   3.262e-03
2.694e-01   2.694e-01   4.479e-02   6.353e-04   7.779e+00   2.902e-03
3.171e-01   3.171e-01   5.270e-02   7.120e-04   7.780e+00   2.503e-03
3.732e-01   3.732e-01   6.201e-02   7.924e-04   7.781e+00   2.076e-03
4.392e-01   4.392e-01   7.296e-02   8.755e-04   7.782e+00   1.655e-03
5.169e-01   5.169e-01   8.583e-02   9.601e-04   7.783e+00   1.343e-03
6.083e-01   6.084e-01   1.010e-01   1.045e-03   7.784e+00   1.343e-03
7.160e-01   7.160e-01   1.188e-01   1.132e-03   7.786e+00   1.759e-03
8.427e-01   8.426e-01   1.397e-01   1.220e-03   7.788e+00   2.458e-03
9.918e-01   9.917e-01   1.643e-01   1.314e-03   7.790e+00   3.311e-03
1.167e+00   1.167e+00   1.931e-01   1.416e-03   7.792e+00   4.244e-03
1.374e+00   1.373e+00   2.270e-01   1.531e-03   7.795e+00   5.198e-03
1.617e+00   1.616e+00   2.668e-01   1.661e-03   7.799e+00   6.109e-03
1.903e+00   1.902e+00   3.134e-01   1.804e-03   7.803e+00   6.903e-03
2.240e+00   2.239e+00   3.681e-01   1.954e-03   7.807e+00   7.492e-03
2.636e+00   2.635e+00   4.322e-01   2.102e-03   7.812e+00   7.786e-03
3.102e+00   3.100e+00   5.072e-01   2.239e-03   7.818e+00   7.695e-03
3.651e+00   3.649e+00   5.949e-01   2.355e-03   7.824e+00   7.154e-03
4.297e+00   4.294e+00   6.975e-01   2.432e-03   7.832e+00   6.142e-03
5.058e+00   5.053e+00   8.172e-01   2.431e-03   7.840e+00   4.739e-03
5.952e+00   5.946e+00   9.569e-01   2.291e-03   7.851e+00   3.269e-03
7.006e+00   6.997e+00   1.120e+00   1.992e-03   7.863e+00   2.683e-03
8.245e+00   8.233e+00   1.308e+00   1.707e-03   7.878e+00   3.435e-03
9.704e+00   9.688e+00   1.527e+00   1.788e-03   7.896e+00   4.123e-03
1.142e+01   1.140e+01   1.780e+00   2.186e-03   7.916e+00   4.270e-03
1.344e+01   1.341e+01   2.071e+00   2.546e-03   7.938e+00   4.524e-03
1.582e+01   1.578e+01   2.405e+00   2.901e-03   7.964e+00   3.925e-03
1.862e+01   1.856e+01   2.785e+00   3.703e-03   7.996e+00   2.062e-03
2.191e+01   2.184e+01   3.216e+00   4.192e-03   8.035e+00   5.279e-03
2.579e+01   2.568e+01   3.701e+00   3.056e-03   8.080e+00   7.675e-03
3.035e+01   3.020e+01   4.244e+00   1.238e-03   8.128e+00   4.638e-03
3.573e+01   3.551e+01   4.848e+00   2.577e-03   8.183e+00   3.246e-03
4.205e+01   4.174e+01   5.515e+00   4.779e-03   8.248e+00   3.378e-03
4.949e+01   4.904e+01   6.243e+00   5.432e-03   8.320e+00   4.855e-03
5.824e+01   5.760e+01   7.030e+00   5.746e-03   8.399e+00   8.369e-03
6.855e+01   6.762e+01   7.873e+00   6.180e-03   8.490e+00   4.051e-03
8.068e+01   7.932e+01   8.764e+00   6.081e-03   8.595e+00   4.945e-03
9.495e+01   9.295e+01   9.694e+00   5.642e-03   8.708e+00   7.292e-03
1.117e+02   1.088e+02   1.065e+01   4.986e-03   8.823e+00   1.042e-02
1.315e+02   1.272e+02   1.163e+01   6.626e-03   8.948e+00   6.559e-03
1.548e+02   1.484e+02   1.262e+01   3.709e-03   9.082e+00   1.736e-02
1.822e+02   1.727e+02   1.361e+01   3.753e-03   9.211e+00   8.335e-03
2.144e+02   2.004e+02   1.459e+01   1.501e-03   9.334e+00   8.763e-03
2.524e+02   2.318e+02   1.555e+01   5.262e-03   9.466e+00   1.046e-02
2.970e+02   2.671e+02   1.649e+01   8.988e-03   9.601e+00   1.415e-02
3.496e+02   3.064e+02   1.740e+01   6.445e-03   9.722e+00   2.015e-02
4.114e+02   3.497e+02   1.828e+01   5.426e-03   9.842e+00   3.054e-02
4.842e+02   3.971e+02   1.914e+01   7.510e-03   9.969e+00   4.135e-02
5.699e+02   4.484e+02   1.996e+01   1.243e-02   1.008e+01   2.681e-02
6.707e+02   5.036e+02   2.075e+01   1.276e-02   1.016e+01   2.239e-02
7.894e+02   5.625e+02   2.150e+01   1.203e-02   1.022e+01   3.628e-02
9.290e+02   6.250e+02   2.222e+01   1.171e-02   1.029e+01   4.668e-02
1.093e+03   6.909e+02   2.292e+01   1.227e-02   1.034e+01   3.131e-02
1.287e+03   7.600e+02   2.358e+01   1.532e-02   1.039e+01   5.427e-02
1.515e+03   8.321e+02   2.422e+01   1.637e-02   1.045e+01   6.615e-02
1.783e+03   9.071e+02   2.484e+01   1.524e-02   1.051e+01   3.042e-02
2.098e+03   9.849e+02   2.543e+01   1.224e-02   1.053e+01   5.503e-02
2.469e+03   1.065e+03   2.600e+01   8.771e-03   1.049e+01   7.370e-02
2.906e+03   1.148e+03   2.655e+01   1.070e-02   1.044e+01   3.898e-02
3.420e+03   1.233e+03   2.708e+01   1.264e-02   1.040e+01   1.689e-02
4.025e+03   1.321e+03   2.759e+01   1.518e-02   1.037e+01   1.690e-02
4.738e+03   1.410e+03   2.808e+01   1.739e-02   1.035e+01   2.610e-02
5.576e+03   1.502e+03   2.856e+01   1.719e-02   1.032e+01   3.733e-02
6.563e+03   1.595e+03   2.903e+01   1.825e-02   1.026e+01   5.917e-02
7.724e+03   1.691e+03   2.949e+01   2.201e-02   1.019e+01   5.911e-02
9.090e+03   1.788e+03   2.993e+01   2.341e-02   1.012e+01   4.805e-02
1.070e+04   1.887e+03   3.036e+01   1.900e-02   1.007e+01   4.983e-02
1.259e+04   1.987e+03   3.077e+01   1.462e-02   1.001e+01   8.033e-02
1.482e+04   2.090e+03   3.118e+01   1.873e-02   9.944e+00   8.916e-02
1.744e+04   2.193e+03   3.158e+01   2.510e-02   9.880e+00   1.228e-01
2.053e+04   2.299e+03   3.197e+01   2.853e-02   9.795e+00   1.116e-01
2.416e+04   2.405e+03   3.235e+01   2.791e-02   9.689e+00   4.107e-02
2.844e+04   2.513e+03   3.272e+01   2.612e-02   9.602e+00   8.438e-02
3.347e+04   2.623e+03   3.308e+01   2.683e-02   9.554e+00   1.887e-01
3.939e+04   2.733e+03   3.343e+01   2.816e-02   9.505e+00   2.513e-01
4.636e+04   2.845e+03   3.378e+01   2.696e-02   9.408e+00   1.776e-01
5.456e+04   2.959e+03   3.411e+01   2.253e-02   9.269e+00   8.523e-02
6.421e+04   3.073e+03   3.444e+01   1.661e-02   9.131e+00   2.050e-01
7.557e+04   3.189e+03   3.477e+01   1.556e-02   9.021e+00   2.426e-01