File: N2_REF_ISOTHERMS/AIF/n2_irmof1_350K.aif
data_N2_IRMOF1_350K
_exptl_date 2023-08-09
_exptl_temperature 350
_adsnt_material_id IRMOF-1
_simltn_adsorbent_filename 'data.IRMOF1_mCBAC_rep111'
_units_temperature K
_units_fugacity BAR
_units_pressure BAR
_units_loading MOL-PER-KiloGM
_units_qst KiloJ-PER-MOL
_exptl_isotherm_type absolute
_exptl_adsorptive_name 'Nitrogen'
_simltn_forcefield_adsorptive 'TraPPE N2; 12ang linear-force shift'
_simltn_forcefield_adsorbent 'see adsorbent file'

loop_
_adsorp_fugacity
_adsorp_pressure
_adsorp_amount
_adsorp_amount_uncertainty
_adsorp_qst
_adsorp_qst_uncertainty
4.864e-02   4.864e-02   5.204e-03   7.858e-05   7.857e+00   8.238e-03
5.621e-02   5.621e-02   6.014e-03   9.089e-05   7.857e+00   8.192e-03
6.496e-02   6.496e-02   6.949e-03   1.051e-04   7.857e+00   8.140e-03
7.507e-02   7.507e-02   8.030e-03   1.216e-04   7.857e+00   8.080e-03
8.676e-02   8.676e-02   9.278e-03   1.407e-04   7.858e+00   8.011e-03
1.003e-01   1.003e-01   1.072e-02   1.629e-04   7.858e+00   7.933e-03
1.159e-01   1.159e-01   1.239e-02   1.885e-04   7.858e+00   7.843e-03
1.339e-01   1.339e-01   1.431e-02   2.183e-04   7.858e+00   7.740e-03
1.548e-01   1.548e-01   1.654e-02   2.528e-04   7.858e+00   7.623e-03
1.789e-01   1.789e-01   1.911e-02   2.928e-04   7.858e+00   7.490e-03
2.067e-01   2.067e-01   2.207e-02   3.392e-04   7.859e+00   7.340e-03
2.389e-01   2.389e-01   2.550e-02   3.931e-04   7.859e+00   7.169e-03
2.761e-01   2.761e-01   2.946e-02   4.556e-04   7.859e+00   6.976e-03
3.191e-01   3.190e-01   3.402e-02   5.281e-04   7.860e+00   6.760e-03
3.687e-01   3.687e-01   3.930e-02   6.123e-04   7.860e+00   6.518e-03
4.261e-01   4.261e-01   4.539e-02   7.098e-04   7.861e+00   6.248e-03
4.925e-01   4.924e-01   5.242e-02   8.227e-04   7.861e+00   5.950e-03
5.691e-01   5.690e-01   6.053e-02   9.532e-04   7.862e+00   5.623e-03
6.577e-01   6.576e-01   6.989e-02   1.104e-03   7.863e+00   5.268e-03
7.601e-01   7.600e-01   8.069e-02   1.276e-03   7.864e+00   4.887e-03
8.785e-01   8.782e-01   9.315e-02   1.474e-03   7.865e+00   4.485e-03
1.015e+00   1.015e+00   1.075e-01   1.698e-03   7.866e+00   4.069e-03
1.173e+00   1.173e+00   1.241e-01   1.950e-03   7.868e+00   3.650e-03
1.356e+00   1.355e+00   1.432e-01   2.232e-03   7.869e+00   3.243e-03
1.567e+00   1.566e+00   1.653e-01   2.542e-03   7.871e+00   2.858e-03
1.811e+00   1.810e+00   1.907e-01   2.876e-03   7.874e+00   2.503e-03
2.093e+00   2.091e+00   2.200e-01   3.227e-03   7.876e+00   2.167e-03
2.419e+00   2.417e+00   2.538e-01   3.582e-03   7.879e+00   1.828e-03
2.795e+00   2.793e+00   2.928e-01   3.919e-03   7.883e+00   1.470e-03
3.231e+00   3.227e+00   3.378e-01   4.212e-03   7.887e+00   1.158e-03
3.734e+00   3.728e+00   3.897e-01   4.424e-03   7.892e+00   1.161e-03
4.315e+00   4.308e+00   4.495e-01   4.520e-03   7.897e+00   1.659e-03
4.987e+00   4.977e+00   5.184e-01   4.476e-03   7.904e+00   2.398e-03
5.763e+00   5.750e+00   5.977e-01   4.305e-03   7.912e+00   3.111e-03
6.660e+00   6.643e+00   6.886e-01   4.078e-03   7.921e+00   3.609e-03
7.697e+00   7.674e+00   7.929e-01   3.903e-03   7.931e+00   3.771e-03
8.895e+00   8.865e+00   9.121e-01   3.819e-03   7.943e+00   3.555e-03
1.028e+01   1.024e+01   1.048e+00   3.728e-03   7.957e+00   2.991e-03
1.188e+01   1.183e+01   1.203e+00   3.576e-03   7.972e+00   2.218e-03
1.373e+01   1.366e+01   1.380e+00   3.637e-03   7.990e+00   1.863e-03
1.587e+01   1.577e+01   1.581e+00   4.252e-03   8.009e+00   2.748e-03
1.834e+01   1.821e+01   1.808e+00   5.311e-03   8.031e+00   4.002e-03
2.119e+01   2.102e+01   2.065e+00   6.767e-03   8.055e+00   4.907e-03
2.449e+01   2.427e+01   2.355e+00   8.818e-03   8.083e+00   5.141e-03
2.831e+01   2.801e+01   2.681e+00   1.111e-02   8.117e+00   3.614e-03
3.271e+01   3.231e+01   3.046e+00   1.224e-02   8.156e+00   1.694e-03
3.780e+01   3.727e+01   3.451e+00   1.035e-02   8.200e+00   6.440e-03
4.369e+01   4.297e+01   3.897e+00   5.171e-03   8.247e+00   8.488e-03
5.049e+01   4.953e+01   4.387e+00   3.039e-03   8.297e+00   6.459e-03
5.835e+01   5.705e+01   4.921e+00   7.561e-03   8.354e+00   2.385e-03
6.744e+01   6.569e+01   5.500e+00   8.713e-03   8.417e+00   4.476e-03
7.794e+01   7.558e+01   6.123e+00   6.405e-03   8.487e+00   7.364e-03
9.007e+01   8.690e+01   6.789e+00   6.379e-03   8.564e+00   6.092e-03
1.041e+02   9.981e+01   7.496e+00   9.218e-03   8.648e+00   8.600e-03
1.203e+02   1.145e+02   8.239e+00   7.735e-03   8.734e+00   7.948e-03
1.390e+02   1.312e+02   9.013e+00   7.903e-03   8.826e+00   4.950e-03
1.607e+02   1.502e+02   9.812e+00   1.245e-02   8.926e+00   8.819e-03
1.857e+02   1.715e+02   1.063e+01   1.513e-02   9.030e+00   7.934e-03
2.146e+02   1.955e+02   1.146e+01   1.295e-02   9.140e+00   5.024e-03
2.480e+02   2.223e+02   1.230e+01   9.630e-03   9.253e+00   5.746e-03
2.866e+02   2.521e+02   1.314e+01   6.752e-03   9.360e+00   8.048e-03
3.312e+02   2.852e+02   1.397e+01   4.155e-03   9.460e+00   7.188e-03
3.828e+02   3.215e+02   1.480e+01   6.493e-03   9.559e+00   1.181e-02
4.424e+02   3.612e+02   1.562e+01   5.767e-03   9.662e+00   1.059e-02
5.113e+02   4.043e+02   1.642e+01   6.727e-03   9.766e+00   2.199e-03
5.909e+02   4.509e+02   1.721e+01   9.001e-03   9.861e+00   1.500e-02
6.828e+02   5.009e+02   1.797e+01   1.029e-02   9.945e+00   2.145e-02
7.892e+02   5.544e+02   1.871e+01   1.398e-02   1.002e+01   2.746e-02
9.120e+02   6.111e+02   1.943e+01   1.625e-02   1.010e+01   2.219e-02
1.054e+03   6.710e+02   2.012e+01   1.560e-02   1.018e+01   1.800e-02
1.218e+03   7.341e+02   2.080e+01   1.348e-02   1.024e+01   4.534e-02
1.408e+03   8.002e+02   2.146e+01   1.061e-02   1.028e+01   5.797e-02
1.627e+03   8.692e+02   2.209e+01   7.046e-03   1.031e+01   4.476e-02
1.880e+03   9.409e+02   2.270e+01   5.659e-03   1.033e+01   3.033e-02
2.173e+03   1.015e+03   2.329e+01   9.912e-03   1.035e+01   4.304e-02
2.511e+03   1.092e+03   2.387e+01   1.234e-02   1.039e+01   3.596e-02
2.902e+03   1.172e+03   2.443e+01   1.309e-02   1.044e+01   7.966e-03
3.354e+03   1.254e+03   2.497e+01   1.351e-02   1.046e+01   3.140e-02
3.876e+03   1.338e+03   2.550e+01   1.300e-02   1.043e+01   4.619e-02
4.480e+03   1.424e+03   2.600e+01   9.856e-03   1.036e+01   4.350e-02
5.177e+03   1.513e+03   2.649e+01   4.274e-03   1.030e+01   6.406e-02
5.983e+03   1.603e+03   2.697e+01   2.552e-03   1.025e+01   7.321e-02
6.914e+03   1.696e+03   2.743e+01   5.788e-03   1.021e+01   5.069e-02
7.991e+03   1.790e+03   2.788e+01   8.189e-03   1.015e+01   4.372e-02
9.235e+03   1.886e+03   2.832e+01   9.087e-03   1.010e+01   5.191e-02
1.067e+04   1.984e+03   2.875e+01   1.043e-02   1.003e+01   4.639e-02
1.233e+04   2.084e+03   2.917e+01   1.531e-02   9.962e+00   2.143e-02
1.425e+04   2.185e+03   2.958e+01   1.976e-02   9.887e+00   7.557e-02
1.647e+04   2.288e+03   2.998e+01   2.037e-02   9.818e+00   9.037e-02
1.904e+04   2.392e+03   3.038e+01   1.968e-02   9.752e+00   7.388e-02
2.200e+04   2.498e+03   3.076e+01   2.121e-02   9.670e+00   6.079e-02
2.543e+04   2.605e+03   3.113e+01   2.333e-02   9.565e+00   1.825e-02
2.939e+04   2.714e+03   3.149e+01   2.359e-02   9.449e+00   4.514e-02
3.396e+04   2.824e+03   3.185e+01   2.163e-02   9.342e+00   8.498e-02
3.925e+04   2.935e+03   3.219e+01   1.916e-02   9.249e+00   8.065e-02
4.536e+04   3.048e+03   3.253e+01   1.744e-02   9.156e+00   4.875e-02
5.242e+04   3.162e+03   3.287e+01   1.545e-02   9.052e+00   8.015e-02
6.058e+04   3.277e+03   3.320e+01   1.469e-02   8.937e+00   9.681e-02
7.001e+04   3.393e+03   3.353e+01   1.892e-02   8.825e+00   4.661e-02
8.091e+04   3.511e+03   3.385e+01   2.696e-02   8.722e+00   4.174e-02