File: N2_REF_ISOTHERMS/AIF/n2_zif8_300K.aif
data_N2_ZIF8_300K
_exptl_date
_exptl_temperature 300
_adsnt_material_id ZIF-8
_simltn_adsorbent_filename 'data.ZIF8_Snurr_rep222'
_units_temperature K
_units_fugacity BAR
_units_pressure BAR
_units_loading MOL-PER-KiloGM
_units_qst KiloJ-PER-MOL
_exptl_isotherm_type absolute
_exptl_adsorptive_name 'Nitrogen'
_simltn_forcefield_adsorptive 'TraPPE N2; 12ang linear-force shift'
_simltn_forcefield_adsorbent 'see adsorbent file'

loop_
_adsorp_fugacity
_adsorp_pressure
_adsorp_amount
_adsorp_amount_uncertainty
_adsorp_qst
_adsorp_qst_uncertainty
7.478e-03   7.480e-03   9.575e-04   2.397e-05   1.019e+01   4.358e-03
8.802e-03   8.804e-03   1.127e-03   2.824e-05   1.019e+01   4.363e-03
1.036e-02   1.036e-02   1.326e-03   3.327e-05   1.019e+01   4.370e-03
1.219e-02   1.220e-02   1.561e-03   3.920e-05   1.019e+01   4.377e-03
1.435e-02   1.435e-02   1.837e-03   4.620e-05   1.019e+01   4.384e-03
1.689e-02   1.689e-02   2.162e-03   5.447e-05   1.019e+01   4.393e-03
1.988e-02   1.988e-02   2.544e-03   6.425e-05   1.019e+01   4.402e-03
2.339e-02   2.340e-02   2.994e-03   7.582e-05   1.019e+01   4.412e-03
2.753e-02   2.754e-02   3.524e-03   8.952e-05   1.019e+01   4.422e-03
3.240e-02   3.241e-02   4.147e-03   1.058e-04   1.019e+01   4.433e-03
3.814e-02   3.815e-02   4.881e-03   1.251e-04   1.019e+01   4.442e-03
4.488e-02   4.490e-02   5.744e-03   1.480e-04   1.019e+01   4.450e-03
5.283e-02   5.284e-02   6.759e-03   1.754e-04   1.019e+01   4.454e-03
6.217e-02   6.219e-02   7.954e-03   2.082e-04   1.019e+01   4.454e-03
7.317e-02   7.319e-02   9.360e-03   2.473e-04   1.019e+01   4.446e-03
8.612e-02   8.614e-02   1.101e-02   2.943e-04   1.019e+01   4.428e-03
1.014e-01   1.014e-01   1.296e-02   3.506e-04   1.019e+01   4.394e-03
1.193e-01   1.193e-01   1.525e-02   4.181e-04   1.019e+01   4.339e-03
1.404e-01   1.404e-01   1.795e-02   4.988e-04   1.019e+01   4.259e-03
1.652e-01   1.653e-01   2.112e-02   5.948e-04   1.019e+01   4.144e-03
1.945e-01   1.945e-01   2.485e-02   7.079e-04   1.019e+01   3.989e-03
2.289e-01   2.289e-01   2.924e-02   8.396e-04   1.019e+01   3.787e-03
2.694e-01   2.694e-01   3.441e-02   9.902e-04   1.019e+01   3.533e-03
3.171e-01   3.171e-01   4.049e-02   1.158e-03   1.019e+01   3.233e-03
3.732e-01   3.732e-01   4.763e-02   1.340e-03   1.020e+01   2.901e-03
4.392e-01   4.392e-01   5.604e-02   1.528e-03   1.020e+01   2.584e-03
5.169e-01   5.169e-01   6.591e-02   1.714e-03   1.020e+01   2.378e-03
6.083e-01   6.084e-01   7.751e-02   1.884e-03   1.020e+01   2.425e-03
7.160e-01   7.160e-01   9.112e-02   2.026e-03   1.021e+01   2.813e-03
8.427e-01   8.426e-01   1.071e-01   2.127e-03   1.021e+01   3.479e-03
9.918e-01   9.917e-01   1.258e-01   2.177e-03   1.022e+01   4.259e-03
1.167e+00   1.167e+00   1.477e-01   2.173e-03   1.023e+01   4.953e-03
1.374e+00   1.373e+00   1.733e-01   2.123e-03   1.023e+01   5.365e-03
1.617e+00   1.616e+00   2.033e-01   2.053e-03   1.024e+01   5.423e-03
1.903e+00   1.902e+00   2.383e-01   2.016e-03   1.025e+01   5.360e-03
2.240e+00   2.239e+00   2.792e-01   2.047e-03   1.027e+01   5.622e-03
2.636e+00   2.635e+00   3.268e-01   2.106e-03   1.028e+01   6.100e-03
3.102e+00   3.100e+00   3.821e-01   2.087e-03   1.029e+01   5.956e-03
3.651e+00   3.649e+00   4.462e-01   1.924e-03   1.031e+01   4.585e-03
4.297e+00   4.294e+00   5.203e-01   1.639e-03   1.034e+01   2.425e-03
5.058e+00   5.053e+00   6.059e-01   1.204e-03   1.036e+01   2.206e-03
5.952e+00   5.946e+00   7.045e-01   5.898e-04   1.040e+01   4.561e-03
7.006e+00   6.997e+00   8.177e-01   2.803e-04   1.043e+01   6.467e-03
8.245e+00   8.233e+00   9.468e-01   4.068e-04   1.047e+01   6.314e-03
9.704e+00   9.688e+00   1.093e+00   1.322e-03   1.051e+01   3.863e-03
1.142e+01   1.140e+01   1.258e+00   2.499e-03   1.056e+01   3.851e-03
1.344e+01   1.341e+01   1.442e+00   2.501e-03   1.062e+01   3.360e-03
1.582e+01   1.578e+01   1.647e+00   1.890e-03   1.068e+01   4.823e-03
1.862e+01   1.856e+01   1.872e+00   2.717e-03   1.075e+01   5.914e-03
2.191e+01   2.184e+01   2.118e+00   2.739e-03   1.083e+01   5.877e-03
2.579e+01   2.568e+01   2.383e+00   2.183e-03   1.092e+01   3.926e-03
3.035e+01   3.020e+01   2.668e+00   2.844e-03   1.101e+01   5.629e-03
3.573e+01   3.551e+01   2.970e+00   3.608e-03   1.111e+01   4.154e-03
4.205e+01   4.174e+01   3.286e+00   2.904e-03   1.121e+01   9.217e-03
4.949e+01   4.904e+01   3.613e+00   2.300e-03   1.131e+01   1.708e-02
5.824e+01   5.760e+01   3.948e+00   2.891e-03   1.142e+01   5.989e-03
6.855e+01   6.762e+01   4.287e+00   7.960e-04   1.152e+01   1.423e-02
8.068e+01   7.932e+01   4.630e+00   2.124e-03   1.162e+01   2.314e-02
9.495e+01   9.295e+01   4.974e+00   3.239e-03   1.175e+01   1.100e-02
1.117e+02   1.088e+02   5.318e+00   4.058e-03   1.187e+01   1.663e-02
1.315e+02   1.272e+02   5.659e+00   3.121e-03   1.197e+01   7.837e-03
1.548e+02   1.484e+02   5.994e+00   2.912e-03   1.206e+01   6.691e-03
1.822e+02   1.727e+02   6.324e+00   4.731e-03   1.218e+01   1.547e-02
2.144e+02   2.004e+02   6.651e+00   4.618e-03   1.232e+01   2.003e-02
2.524e+02   2.318e+02   6.972e+00   4.088e-03   1.241e+01   7.583e-03
2.970e+02   2.671e+02   7.286e+00   4.715e-03   1.245e+01   2.549e-02
3.496e+02   3.064e+02   7.593e+00   3.148e-03   1.249e+01   2.829e-02
4.114e+02   3.497e+02   7.892e+00   1.545e-03   1.254e+01   1.736e-02
4.842e+02   3.971e+02   8.186e+00   2.711e-03   1.262e+01   3.138e-02
5.699e+02   4.484e+02   8.474e+00   4.755e-03   1.267e+01   1.170e-02
6.707e+02   5.036e+02   8.756e+00   6.558e-03   1.269e+01   3.988e-02
7.894e+02   5.625e+02   9.029e+00   6.055e-03   1.271e+01   3.747e-02
9.290e+02   6.250e+02   9.294e+00   5.381e-03   1.273e+01   5.717e-02
1.093e+03   6.909e+02   9.551e+00   4.672e-03   1.273e+01   8.284e-02
1.287e+03   7.600e+02   9.801e+00   4.825e-03   1.273e+01   4.936e-02
1.515e+03   8.321e+02   1.004e+01   7.331e-03   1.274e+01   9.823e-02
1.783e+03   9.071e+02   1.028e+01   7.495e-03   1.272e+01   3.658e-02
2.098e+03   9.849e+02   1.051e+01   5.592e-03   1.269e+01   6.780e-02
2.469e+03   1.065e+03   1.073e+01   3.747e-03   1.266e+01   4.389e-02
2.906e+03   1.148e+03   1.094e+01   1.705e-03   1.261e+01   5.252e-02
3.420e+03   1.233e+03   1.114e+01   2.832e-03   1.253e+01   8.075e-02
4.025e+03   1.321e+03   1.134e+01   6.867e-03   1.245e+01   1.056e-01
4.738e+03   1.410e+03   1.152e+01   1.036e-02   1.238e+01   1.099e-01
5.576e+03   1.502e+03   1.171e+01   1.135e-02   1.229e+01   2.277e-02
6.563e+03   1.595e+03   1.189e+01   9.039e-03   1.218e+01   9.442e-02
7.724e+03   1.691e+03   1.206e+01   5.718e-03   1.207e+01   1.589e-01
9.090e+03   1.788e+03   1.223e+01   4.510e-03   1.193e+01   1.248e-01
1.070e+04   1.887e+03   1.239e+01   5.048e-03   1.174e+01   8.007e-02
1.259e+04   1.987e+03   1.255e+01   3.501e-03   1.156e+01   1.421e-01
1.482e+04   2.090e+03   1.270e+01   1.917e-03   1.143e+01   1.504e-01
1.744e+04   2.193e+03   1.285e+01   4.384e-03   1.129e+01   1.186e-01
2.053e+04   2.299e+03   1.300e+01   4.905e-03   1.110e+01   5.308e-02
2.416e+04   2.405e+03   1.315e+01   2.475e-03   1.089e+01   5.819e-02
2.844e+04   2.513e+03   1.329e+01   5.382e-03   1.070e+01   1.471e-01
3.347e+04   2.623e+03   1.342e+01   1.172e-02   1.052e+01   2.205e-01
3.939e+04   2.733e+03   1.356e+01   1.539e-02   1.035e+01   2.613e-01
4.636e+04   2.845e+03   1.369e+01   1.264e-02   1.019e+01   1.810e-01
5.456e+04   2.959e+03   1.382e+01   4.110e-03   1.005e+01   1.334e-01
6.421e+04   3.073e+03   1.395e+01   1.042e-02   9.873e+00   3.384e-01
7.557e+04   3.189e+03   1.408e+01   1.844e-02   9.597e+00   3.858e-01