File: N2_REF_ISOTHERMS/AIF/n2_zif8_350K.aif
data_N2_ZIF8_350K
_exptl_date
_exptl_temperature 350
_adsnt_material_id ZIF-8
_adsnt_filename 'data.ZIF8_Snurr_rep222'
_units_temperature K
_units_fugacity BAR
_units_pressure BAR
_units_loading MOL-PER-KiloGM
_units_qst KiloJ-PER-MOL
_exptl_isotherm_type absolute
_exptl_adsorptive_name 'Nitrogen'
_forcefield_adsorptive 'TraPPE N2; 12ang linear-force shift'
_forcefield_adsnt 'see adsorbent file'

loop_
_adsorp_fugacity
_adsorp_pressure
_adsorp_amount
_adsorp_amount_uncertainty
_adsorp_qst
_adsorp_qst_uncertainty
4.864e-02   4.864e-02   3.464e-03   5.315e-05   1.033e+01   1.038e-02
5.621e-02   5.621e-02   4.004e-03   6.057e-05   1.033e+01   1.026e-02
6.496e-02   6.496e-02   4.627e-03   6.888e-05   1.033e+01   1.012e-02
7.507e-02   7.507e-02   5.347e-03   7.815e-05   1.033e+01   9.973e-03
8.676e-02   8.676e-02   6.179e-03   8.844e-05   1.033e+01   9.808e-03
1.003e-01   1.003e-01   7.140e-03   9.978e-05   1.033e+01   9.629e-03
1.159e-01   1.159e-01   8.251e-03   1.122e-04   1.033e+01   9.435e-03
1.339e-01   1.339e-01   9.535e-03   1.258e-04   1.033e+01   9.229e-03
1.548e-01   1.548e-01   1.102e-02   1.405e-04   1.033e+01   9.010e-03
1.789e-01   1.789e-01   1.273e-02   1.563e-04   1.033e+01   8.781e-03
2.067e-01   2.067e-01   1.471e-02   1.733e-04   1.033e+01   8.541e-03
2.389e-01   2.389e-01   1.700e-02   1.916e-04   1.033e+01   8.291e-03
2.761e-01   2.761e-01   1.964e-02   2.117e-04   1.033e+01   8.028e-03
3.191e-01   3.190e-01   2.269e-02   2.340e-04   1.033e+01   7.746e-03
3.687e-01   3.687e-01   2.622e-02   2.599e-04   1.033e+01   7.435e-03
4.261e-01   4.261e-01   3.029e-02   2.912e-04   1.033e+01   7.077e-03
4.925e-01   4.924e-01   3.499e-02   3.306e-04   1.033e+01   6.651e-03
5.691e-01   5.690e-01   4.042e-02   3.816e-04   1.034e+01   6.129e-03
6.577e-01   6.576e-01   4.669e-02   4.481e-04   1.034e+01   5.482e-03
7.601e-01   7.600e-01   5.393e-02   5.333e-04   1.034e+01   4.689e-03
8.785e-01   8.782e-01   6.227e-02   6.392e-04   1.034e+01   3.743e-03
1.015e+00   1.015e+00   7.190e-02   7.649e-04   1.035e+01   2.670e-03
1.173e+00   1.173e+00   8.301e-02   9.060e-04   1.035e+01   1.580e-03
1.356e+00   1.355e+00   9.581e-02   1.052e-03   1.035e+01   9.706e-04
1.567e+00   1.566e+00   1.106e-01   1.189e-03   1.036e+01   1.558e-03
1.811e+00   1.810e+00   1.276e-01   1.296e-03   1.036e+01   2.426e-03
2.093e+00   2.091e+00   1.471e-01   1.354e-03   1.037e+01   3.127e-03
2.419e+00   2.417e+00   1.696e-01   1.348e-03   1.038e+01   3.642e-03
2.795e+00   2.793e+00   1.955e-01   1.279e-03   1.039e+01   4.100e-03
3.231e+00   3.227e+00   2.251e-01   1.166e-03   1.039e+01   4.598e-03
3.734e+00   3.728e+00   2.591e-01   1.041e-03   1.040e+01   4.993e-03
4.315e+00   4.308e+00   2.978e-01   9.531e-04   1.041e+01   4.951e-03
4.987e+00   4.977e+00   3.420e-01   9.664e-04   1.043e+01   4.393e-03
5.763e+00   5.750e+00   3.923e-01   1.155e-03   1.044e+01   4.408e-03
6.660e+00   6.643e+00   4.496e-01   1.542e-03   1.046e+01   6.272e-03
7.697e+00   7.674e+00   5.147e-01   2.058e-03   1.048e+01   8.341e-03
8.895e+00   8.865e+00   5.885e-01   2.579e-03   1.050e+01   8.623e-03
1.028e+01   1.024e+01   6.722e-01   2.993e-03   1.053e+01   7.165e-03
1.188e+01   1.183e+01   7.667e-01   3.217e-03   1.056e+01   6.432e-03
1.373e+01   1.366e+01   8.727e-01   3.165e-03   1.060e+01   7.587e-03
1.587e+01   1.577e+01   9.909e-01   2.762e-03   1.064e+01   1.008e-02
1.834e+01   1.821e+01   1.122e+00   1.926e-03   1.068e+01   1.178e-02
2.119e+01   2.102e+01   1.267e+00   6.460e-04   1.072e+01   9.937e-03
2.449e+01   2.427e+01   1.428e+00   9.067e-04   1.077e+01   4.914e-03
2.831e+01   2.801e+01   1.604e+00   1.539e-03   1.083e+01   2.697e-03
3.271e+01   3.231e+01   1.794e+00   1.769e-03   1.089e+01   4.115e-03
3.780e+01   3.727e+01   1.999e+00   2.190e-03   1.095e+01   2.964e-03
4.369e+01   4.297e+01   2.220e+00   1.939e-03   1.102e+01   3.229e-03
5.049e+01   4.953e+01   2.454e+00   1.306e-03   1.109e+01   2.424e-03
5.835e+01   5.705e+01   2.702e+00   3.487e-04   1.118e+01   1.973e-03
6.744e+01   6.569e+01   2.961e+00   1.541e-03   1.126e+01   1.317e-03
7.794e+01   7.558e+01   3.230e+00   1.864e-03   1.135e+01   5.156e-03
9.007e+01   8.690e+01   3.507e+00   2.111e-03   1.144e+01   3.837e-03
1.041e+02   9.981e+01   3.791e+00   2.321e-03   1.153e+01   2.635e-03
1.203e+02   1.145e+02   4.080e+00   2.407e-03   1.161e+01   4.285e-03
1.390e+02   1.312e+02   4.373e+00   2.717e-03   1.169e+01   8.549e-03
1.607e+02   1.502e+02   4.668e+00   2.783e-03   1.178e+01   1.800e-03
1.857e+02   1.715e+02   4.963e+00   2.091e-03   1.187e+01   5.733e-03
2.146e+02   1.955e+02   5.256e+00   3.063e-03   1.195e+01   1.916e-02
2.480e+02   2.223e+02   5.548e+00   5.354e-03   1.202e+01   1.535e-02
2.866e+02   2.521e+02   5.839e+00   5.721e-03   1.211e+01   2.850e-02
3.312e+02   2.852e+02   6.126e+00   4.117e-03   1.220e+01   2.664e-02
3.828e+02   3.215e+02   6.411e+00   2.709e-03   1.227e+01   1.262e-02
4.424e+02   3.612e+02   6.691e+00   1.903e-03   1.232e+01   1.784e-02
5.113e+02   4.043e+02   6.967e+00   1.110e-03   1.239e+01   1.921e-02
5.909e+02   4.509e+02   7.240e+00   9.768e-04   1.250e+01   1.832e-02
6.828e+02   5.009e+02   7.510e+00   1.607e-03   1.256e+01   2.379e-02
7.892e+02   5.544e+02   7.774e+00   1.328e-03   1.254e+01   4.144e-02
9.120e+02   6.111e+02   8.033e+00   2.249e-03   1.254e+01   6.884e-02
1.054e+03   6.710e+02   8.289e+00   3.779e-03   1.258e+01   3.591e-02
1.218e+03   7.341e+02   8.541e+00   5.276e-03   1.261e+01   3.570e-02
1.408e+03   8.002e+02   8.787e+00   7.210e-03   1.260e+01   6.372e-02
1.627e+03   8.692e+02   9.027e+00   7.533e-03   1.259e+01   7.003e-02
1.880e+03   9.409e+02   9.262e+00   5.485e-03   1.258e+01   6.315e-02
2.173e+03   1.015e+03   9.491e+00   4.425e-03   1.258e+01   5.312e-02
2.511e+03   1.092e+03   9.715e+00   4.854e-03   1.258e+01   5.185e-02
2.902e+03   1.172e+03   9.934e+00   3.664e-03   1.258e+01   2.965e-02
3.354e+03   1.254e+03   1.015e+01   3.759e-03   1.257e+01   5.021e-02
3.876e+03   1.338e+03   1.036e+01   4.506e-03   1.253e+01   7.121e-02
4.480e+03   1.424e+03   1.056e+01   3.798e-03   1.246e+01   7.563e-02
5.177e+03   1.513e+03   1.075e+01   3.016e-03   1.238e+01   6.034e-02
5.983e+03   1.603e+03   1.094e+01   1.904e-03   1.232e+01   3.766e-02
6.914e+03   1.696e+03   1.113e+01   4.062e-03   1.226e+01   3.112e-02
7.991e+03   1.790e+03   1.131e+01   6.507e-03   1.216e+01   6.607e-02
9.235e+03   1.886e+03   1.149e+01   7.486e-03   1.202e+01   1.247e-01
1.067e+04   1.984e+03   1.166e+01   9.142e-03   1.191e+01   1.101e-01
1.233e+04   2.084e+03   1.183e+01   1.134e-02   1.181e+01   1.208e-01
1.425e+04   2.185e+03   1.199e+01   1.213e-02   1.173e+01   1.543e-01
1.647e+04   2.288e+03   1.215e+01   9.810e-03   1.160e+01   9.418e-02
1.904e+04   2.392e+03   1.230e+01   5.411e-03   1.141e+01   6.559e-02
2.200e+04   2.498e+03   1.245e+01   4.027e-03   1.121e+01   2.051e-01
2.543e+04   2.605e+03   1.260e+01   5.990e-03   1.108e+01   2.643e-01
2.939e+04   2.714e+03   1.275e+01   7.570e-03   1.098e+01   2.147e-01
3.396e+04   2.824e+03   1.289e+01   7.387e-03   1.082e+01   1.818e-01
3.925e+04   2.935e+03   1.303e+01   6.413e-03   1.059e+01   1.252e-01
4.536e+04   3.048e+03   1.316e+01   7.182e-03   1.039e+01   4.245e-02
5.242e+04   3.162e+03   1.330e+01   9.255e-03   1.021e+01   1.164e-01
6.058e+04   3.277e+03   1.343e+01   1.019e-02   9.999e+00   1.750e-01
7.001e+04   3.393e+03   1.355e+01   9.515e-03   9.801e+00   2.092e-01
8.091e+04   3.511e+03   1.368e+01   8.465e-03   9.644e+00   2.073e-01