File: CO2_REF_ISOTHERMS/AIF/co2_irmof1_300K.aif
data_CO2_IRMOF1_300K
_exptl_date 2022-08-20
_exptl_temperature 300
_adsnt_material_id IRMOF-1
_simltn_adsorbent_filename 'data.IRMOF1_mCBAC_rep111'
_units_temperature K
_units_fugacity BAR
_units_pressure BAR
_units_loading MOL-PER-KiloGM
_units_qst KiloJ-PER-MOL
_exptl_isotherm_type absolute
_exptl_adsorptive_name 'Carbon Dioxide'
_simltn_forcefield_adsorptive 'TraPPE CO2; 12ang linear-force shift'
_simltn_forcefield_adsorbent 'see adsorbent file'

loop_
_adsorp_fugacity
_adsorp_pressure
_adsorp_amount
_adsorp_amount_uncertainty
_adsorp_qst
_adsorp_qst_uncertainty
2.758e-04   2.759e-04   1.828e-04   9.820e-07   1.412e+01   2.272e-02
3.128e-04   3.129e-04   2.074e-04   1.113e-06   1.412e+01   2.271e-02
3.548e-04   3.549e-04   2.352e-04   1.262e-06   1.412e+01   2.271e-02
4.023e-04   4.025e-04   2.667e-04   1.431e-06   1.412e+01   2.270e-02
4.563e-04   4.564e-04   3.025e-04   1.622e-06   1.412e+01   2.269e-02
5.175e-04   5.176e-04   3.430e-04   1.838e-06   1.412e+01   2.268e-02
5.869e-04   5.871e-04   3.890e-04   2.084e-06   1.412e+01   2.267e-02
6.656e-04   6.658e-04   4.412e-04   2.362e-06   1.412e+01   2.266e-02
7.549e-04   7.551e-04   5.004e-04   2.676e-06   1.412e+01   2.265e-02
8.561e-04   8.563e-04   5.675e-04   3.032e-06   1.412e+01   2.264e-02
9.709e-04   9.712e-04   6.436e-04   3.436e-06   1.412e+01   2.262e-02
1.101e-03   1.101e-03   7.299e-04   3.892e-06   1.412e+01   2.260e-02
1.249e-03   1.249e-03   8.278e-04   4.408e-06   1.412e+01   2.258e-02
1.416e-03   1.417e-03   9.388e-04   4.992e-06   1.412e+01   2.256e-02
1.606e-03   1.607e-03   1.065e-03   5.652e-06   1.412e+01   2.253e-02
1.822e-03   1.822e-03   1.208e-03   6.398e-06   1.412e+01   2.250e-02
2.066e-03   2.066e-03   1.369e-03   7.241e-06   1.412e+01   2.247e-02
2.343e-03   2.344e-03   1.553e-03   8.192e-06   1.412e+01   2.243e-02
2.657e-03   2.658e-03   1.761e-03   9.265e-06   1.412e+01   2.239e-02
3.013e-03   3.014e-03   1.998e-03   1.048e-05   1.412e+01   2.234e-02
3.418e-03   3.419e-03   2.266e-03   1.184e-05   1.412e+01   2.229e-02
3.876e-03   3.877e-03   2.569e-03   1.337e-05   1.412e+01   2.222e-02
4.396e-03   4.397e-03   2.914e-03   1.510e-05   1.412e+01   2.216e-02
4.985e-03   4.987e-03   3.305e-03   1.704e-05   1.412e+01   2.208e-02
5.654e-03   5.655e-03   3.748e-03   1.922e-05   1.412e+01   2.199e-02
6.412e-03   6.414e-03   4.251e-03   2.166e-05   1.412e+01   2.190e-02
7.272e-03   7.274e-03   4.821e-03   2.438e-05   1.412e+01   2.179e-02
8.247e-03   8.249e-03   5.468e-03   2.743e-05   1.412e+01   2.167e-02
9.353e-03   9.356e-03   6.201e-03   3.083e-05   1.412e+01   2.154e-02
1.061e-02   1.061e-02   7.033e-03   3.461e-05   1.412e+01   2.140e-02
1.203e-02   1.203e-02   7.976e-03   3.881e-05   1.412e+01   2.124e-02
1.364e-02   1.365e-02   9.046e-03   4.347e-05   1.412e+01   2.107e-02
1.547e-02   1.548e-02   1.026e-02   4.861e-05   1.412e+01   2.088e-02
1.755e-02   1.755e-02   1.164e-02   5.428e-05   1.412e+01   2.068e-02
1.990e-02   1.991e-02   1.320e-02   6.052e-05   1.412e+01   2.046e-02
2.257e-02   2.258e-02   1.497e-02   6.738e-05   1.412e+01   2.024e-02
2.560e-02   2.561e-02   1.698e-02   7.491e-05   1.412e+01   2.000e-02
2.903e-02   2.904e-02   1.925e-02   8.318e-05   1.412e+01   1.977e-02
3.292e-02   3.294e-02   2.184e-02   9.227e-05   1.412e+01   1.954e-02
3.734e-02   3.735e-02   2.477e-02   1.023e-04   1.412e+01   1.932e-02
4.234e-02   4.236e-02   2.809e-02   1.136e-04   1.412e+01   1.913e-02
4.802e-02   4.804e-02   3.186e-02   1.263e-04   1.412e+01   1.898e-02
5.446e-02   5.449e-02   3.614e-02   1.409e-04   1.412e+01   1.890e-02
6.177e-02   6.180e-02   4.099e-02   1.581e-04   1.412e+01   1.889e-02
7.005e-02   7.009e-02   4.650e-02   1.788e-04   1.412e+01   1.898e-02
7.944e-02   7.949e-02   5.274e-02   2.042e-04   1.412e+01   1.920e-02
9.010e-02   9.015e-02   5.982e-02   2.359e-04   1.412e+01   1.955e-02
1.022e-01   1.022e-01   6.786e-02   2.759e-04   1.413e+01   2.005e-02
1.159e-01   1.160e-01   7.698e-02   3.262e-04   1.413e+01   2.069e-02
1.314e-01   1.315e-01   8.733e-02   3.893e-04   1.413e+01   2.144e-02
1.490e-01   1.492e-01   9.907e-02   4.676e-04   1.413e+01   2.229e-02
1.690e-01   1.692e-01   1.124e-01   5.634e-04   1.413e+01   2.316e-02
1.917e-01   1.919e-01   1.275e-01   6.789e-04   1.413e+01   2.400e-02
2.174e-01   2.177e-01   1.447e-01   8.157e-04   1.413e+01   2.473e-02
2.466e-01   2.469e-01   1.642e-01   9.747e-04   1.413e+01   2.525e-02
2.796e-01   2.800e-01   1.863e-01   1.156e-03   1.414e+01   2.548e-02
3.171e-01   3.176e-01   2.114e-01   1.357e-03   1.414e+01   2.531e-02
3.597e-01   3.603e-01   2.399e-01   1.574e-03   1.414e+01   2.470e-02
4.079e-01   4.087e-01   2.723e-01   1.799e-03   1.415e+01   2.360e-02
4.626e-01   4.636e-01   3.090e-01   2.024e-03   1.415e+01   2.207e-02
5.246e-01   5.259e-01   3.508e-01   2.235e-03   1.415e+01   2.025e-02
5.950e-01   5.966e-01   3.983e-01   2.415e-03   1.416e+01   1.843e-02
6.748e-01   6.768e-01   4.524e-01   2.547e-03   1.417e+01   1.709e-02
7.653e-01   7.678e-01   5.138e-01   2.616e-03   1.417e+01   1.676e-02
8.679e-01   8.712e-01   5.837e-01   2.612e-03   1.418e+01   1.766e-02
9.843e-01   9.885e-01   6.633e-01   2.544e-03   1.419e+01   1.938e-02
1.116e+00   1.122e+00   7.540e-01   2.457e-03   1.420e+01   2.110e-02
1.266e+00   1.273e+00   8.573e-01   2.449e-03   1.422e+01   2.196e-02
1.436e+00   1.444e+00   9.751e-01   2.646e-03   1.423e+01   2.149e-02
1.628e+00   1.639e+00   1.110e+00   3.085e-03   1.425e+01   1.995e-02
1.847e+00   1.861e+00   1.263e+00   3.649e-03   1.427e+01   1.841e-02
2.094e+00   2.113e+00   1.438e+00   4.135e-03   1.430e+01   1.805e-02
2.375e+00   2.399e+00   1.639e+00   4.373e-03   1.433e+01   1.905e-02
2.694e+00   2.724e+00   1.869e+00   4.349e-03   1.436e+01   2.037e-02
3.055e+00   3.094e+00   2.133e+00   4.289e-03   1.440e+01   2.051e-02
3.465e+00   3.514e+00   2.437e+00   4.491e-03   1.446e+01   1.780e-02
3.929e+00   3.993e+00   2.788e+00   4.903e-03   1.452e+01   1.215e-02
4.456e+00   4.538e+00   3.194e+00   5.214e-03   1.460e+01   1.006e-02
5.054e+00   5.160e+00   3.664e+00   5.458e-03   1.470e+01   1.077e-02
5.732e+00   5.868e+00   4.210e+00   6.693e-03   1.483e+01   6.319e-03
6.500e+00   6.676e+00   4.845e+00   9.527e-03   1.499e+01   1.196e-02
7.372e+00   7.599e+00   5.589e+00   1.103e-02   1.520e+01   1.566e-02
8.360e+00   8.654e+00   6.463e+00   8.022e-03   1.545e+01   9.148e-03
9.482e+00   9.862e+00   7.490e+00   3.884e-03   1.578e+01   1.027e-02
1.075e+01   1.125e+01   8.693e+00   5.114e-03   1.620e+01   1.216e-02
1.220e+01   1.284e+01   1.008e+01   9.808e-03   1.671e+01   3.198e-02
1.383e+01   1.467e+01   1.163e+01   2.430e-02   1.734e+01   2.621e-02
1.569e+01   1.678e+01   1.330e+01   2.283e-02   1.808e+01   1.203e-02
1.779e+01   1.922e+01   1.497e+01   8.539e-03   1.888e+01   2.242e-02
2.017e+01   2.205e+01   1.656e+01   7.195e-03   1.973e+01   1.831e-02
2.288e+01   2.535e+01   1.799e+01   1.019e-02   2.060e+01   1.804e-02
2.595e+01   2.923e+01   1.926e+01   1.342e-02   2.144e+01   2.286e-02
2.943e+01   3.380e+01   2.037e+01   1.340e-02   2.221e+01   3.129e-02
3.337e+01   3.925e+01   2.133e+01   1.343e-02   2.294e+01   5.693e-02
3.785e+01   4.584e+01   2.218e+01   1.522e-02   2.360e+01   1.532e-02
4.293e+01   5.397e+01   2.293e+01   1.618e-02   2.420e+01   2.963e-02
4.868e+01   6.434e+01   2.361e+01   1.493e-02   2.476e+01   6.875e-02
5.521e+01   7.853e+01   2.423e+01   1.222e-02   2.530e+01   1.034e-01
6.262e+01   1.035e+02   2.480e+01   9.575e-03   2.580e+01   1.005e-01
7.101e+01   1.500e+02   2.532e+01   1.042e-02   2.623e+01   8.812e-02