File: CO2_REF_ISOTHERMS/AIF/co2_cubtc_300K.aif
data_CO2_CuBTC_300K
_exptl_date 2022-08-20
_exptl_temperature 300
_adsnt_material_id CuBTC
_adsnt_filename 'data.CuBTC_CaleroIV_rep111'
_units_temperature K
_units_fugacity BAR
_units_pressure BAR
_units_loading MOL-PER-KiloGM
_units_qst KiloJ-PER-MOL
_exptl_isotherm_type absolute
_exptl_adsorptive_name 'Carbon Dioxide'
_forcefield_adsorptive 'TraPPE CO2; 12ang linear-force shift'
_forcefield_adsnt 'see adsorbent file'

loop_
_adsorp_fugacity
_adsorp_pressure
_adsorp_amount
_adsorp_amount_uncertainty
_adsorp_qst
_adsorp_qst_uncertainty
2.758e-04   2.759e-04   9.480e-04   2.452e-05   2.390e+01   4.228e-02
3.128e-04   3.129e-04   1.075e-03   2.776e-05   2.390e+01   4.215e-02
3.548e-04   3.549e-04   1.219e-03   3.142e-05   2.390e+01   4.201e-02
4.023e-04   4.025e-04   1.383e-03   3.556e-05   2.390e+01   4.186e-02
4.563e-04   4.564e-04   1.568e-03   4.022e-05   2.390e+01   4.168e-02
5.175e-04   5.176e-04   1.778e-03   4.549e-05   2.390e+01   4.148e-02
5.869e-04   5.871e-04   2.017e-03   5.142e-05   2.390e+01   4.126e-02
6.656e-04   6.658e-04   2.287e-03   5.809e-05   2.390e+01   4.101e-02
7.549e-04   7.551e-04   2.594e-03   6.561e-05   2.390e+01   4.073e-02
8.561e-04   8.563e-04   2.941e-03   7.405e-05   2.390e+01   4.041e-02
9.709e-04   9.712e-04   3.335e-03   8.353e-05   2.390e+01   4.006e-02
1.101e-03   1.101e-03   3.782e-03   9.415e-05   2.390e+01   3.967e-02
1.249e-03   1.249e-03   4.289e-03   1.060e-04   2.390e+01   3.923e-02
1.416e-03   1.417e-03   4.864e-03   1.193e-04   2.390e+01   3.874e-02
1.606e-03   1.607e-03   5.516e-03   1.341e-04   2.390e+01   3.820e-02
1.822e-03   1.822e-03   6.254e-03   1.506e-04   2.390e+01   3.760e-02
2.066e-03   2.066e-03   7.092e-03   1.688e-04   2.390e+01   3.694e-02
2.343e-03   2.344e-03   8.042e-03   1.890e-04   2.390e+01   3.622e-02
2.657e-03   2.658e-03   9.119e-03   2.112e-04   2.390e+01   3.544e-02
3.013e-03   3.014e-03   1.034e-02   2.356e-04   2.390e+01   3.459e-02
3.418e-03   3.419e-03   1.172e-02   2.623e-04   2.390e+01   3.368e-02
3.876e-03   3.877e-03   1.329e-02   2.913e-04   2.390e+01   3.271e-02
4.396e-03   4.397e-03   1.507e-02   3.226e-04   2.390e+01   3.169e-02
4.985e-03   4.987e-03   1.708e-02   3.563e-04   2.390e+01   3.064e-02
5.654e-03   5.655e-03   1.937e-02   3.923e-04   2.390e+01   2.956e-02
6.412e-03   6.414e-03   2.195e-02   4.304e-04   2.390e+01   2.849e-02
7.272e-03   7.274e-03   2.488e-02   4.705e-04   2.390e+01   2.743e-02
8.247e-03   8.249e-03   2.820e-02   5.123e-04   2.390e+01   2.643e-02
9.353e-03   9.356e-03   3.196e-02   5.557e-04   2.390e+01   2.549e-02
1.061e-02   1.061e-02   3.621e-02   6.006e-04   2.390e+01   2.464e-02
1.203e-02   1.203e-02   4.103e-02   6.472e-04   2.390e+01   2.388e-02
1.364e-02   1.365e-02   4.648e-02   6.958e-04   2.390e+01   2.316e-02
1.547e-02   1.548e-02   5.265e-02   7.478e-04   2.390e+01   2.245e-02
1.755e-02   1.755e-02   5.963e-02   8.050e-04   2.390e+01   2.164e-02
1.990e-02   1.991e-02   6.752e-02   8.705e-04   2.390e+01   2.062e-02
2.257e-02   2.258e-02   7.643e-02   9.481e-04   2.389e+01   1.924e-02
2.560e-02   2.561e-02   8.650e-02   1.042e-03   2.389e+01   1.736e-02
2.903e-02   2.904e-02   9.786e-02   1.157e-03   2.389e+01   1.488e-02
3.292e-02   3.294e-02   1.107e-01   1.294e-03   2.389e+01   1.174e-02
3.734e-02   3.735e-02   1.251e-01   1.452e-03   2.389e+01   8.201e-03
4.234e-02   4.236e-02   1.414e-01   1.628e-03   2.388e+01   5.792e-03
4.802e-02   4.804e-02   1.598e-01   1.814e-03   2.388e+01   8.045e-03
5.446e-02   5.449e-02   1.804e-01   2.002e-03   2.387e+01   1.363e-02
6.177e-02   6.180e-02   2.036e-01   2.186e-03   2.387e+01   2.018e-02
7.005e-02   7.009e-02   2.296e-01   2.371e-03   2.386e+01   2.668e-02
7.944e-02   7.949e-02   2.587e-01   2.571e-03   2.385e+01   3.237e-02
9.010e-02   9.015e-02   2.914e-01   2.812e-03   2.383e+01   3.641e-02
1.022e-01   1.022e-01   3.280e-01   3.114e-03   2.382e+01   3.800e-02
1.159e-01   1.160e-01   3.689e-01   3.468e-03   2.380e+01   3.645e-02
1.314e-01   1.315e-01   4.145e-01   3.821e-03   2.378e+01   3.146e-02
1.490e-01   1.492e-01   4.653e-01   4.071e-03   2.375e+01   2.370e-02
1.690e-01   1.692e-01   5.217e-01   4.090e-03   2.372e+01   1.683e-02
1.917e-01   1.919e-01   5.845e-01   3.744e-03   2.368e+01   1.959e-02
2.174e-01   2.177e-01   6.540e-01   2.932e-03   2.363e+01   3.043e-02
2.466e-01   2.469e-01   7.309e-01   1.709e-03   2.357e+01   4.120e-02
2.796e-01   2.800e-01   8.159e-01   1.440e-03   2.351e+01   4.762e-02
3.171e-01   3.176e-01   9.096e-01   3.412e-03   2.344e+01   4.710e-02
3.597e-01   3.603e-01   1.013e+00   5.677e-03   2.337e+01   3.900e-02
4.079e-01   4.087e-01   1.127e+00   7.359e-03   2.328e+01   2.845e-02
4.626e-01   4.636e-01   1.252e+00   7.849e-03   2.318e+01   2.956e-02
5.246e-01   5.259e-01   1.390e+00   6.989e-03   2.307e+01   3.809e-02
5.950e-01   5.966e-01   1.541e+00   5.389e-03   2.294e+01   3.645e-02
6.748e-01   6.768e-01   1.708e+00   4.040e-03   2.279e+01   3.100e-02
7.653e-01   7.678e-01   1.890e+00   2.850e-03   2.262e+01   5.455e-02
8.679e-01   8.712e-01   2.091e+00   1.694e-03   2.245e+01   7.830e-02
9.843e-01   9.885e-01   2.311e+00   3.283e-03   2.227e+01   6.853e-02
1.116e+00   1.122e+00   2.554e+00   4.918e-03   2.211e+01   2.241e-02
1.266e+00   1.273e+00   2.823e+00   4.340e-03   2.196e+01   4.003e-02
1.436e+00   1.444e+00   3.121e+00   1.672e-03   2.184e+01   7.618e-02
1.628e+00   1.639e+00   3.453e+00   2.776e-03   2.174e+01   6.872e-02
1.847e+00   1.861e+00   3.825e+00   5.670e-03   2.168e+01   3.296e-02
2.094e+00   2.113e+00   4.243e+00   7.228e-03   2.167e+01   3.634e-02
2.375e+00   2.399e+00   4.712e+00   8.050e-03   2.170e+01   3.369e-02
2.694e+00   2.724e+00   5.235e+00   9.932e-03   2.179e+01   4.836e-03
3.055e+00   3.094e+00   5.817e+00   1.089e-02   2.197e+01   3.492e-02
3.465e+00   3.514e+00   6.462e+00   1.158e-02   2.223e+01   3.207e-02
3.929e+00   3.993e+00   7.163e+00   9.162e-03   2.256e+01   4.708e-02
4.456e+00   4.538e+00   7.902e+00   1.320e-02   2.295e+01   7.015e-02
5.054e+00   5.160e+00   8.659e+00   2.291e-02   2.343e+01   2.717e-02
5.732e+00   5.868e+00   9.412e+00   2.409e-02   2.397e+01   5.068e-02
6.500e+00   6.676e+00   1.014e+01   1.621e-02   2.453e+01   5.177e-02
7.372e+00   7.599e+00   1.083e+01   7.371e-03   2.509e+01   8.914e-02
8.360e+00   8.654e+00   1.147e+01   1.141e-02   2.567e+01   6.296e-02
9.482e+00   9.862e+00   1.205e+01   1.389e-02   2.625e+01   2.652e-02
1.075e+01   1.125e+01   1.258e+01   1.315e-02   2.678e+01   3.764e-02
1.220e+01   1.284e+01   1.306e+01   1.277e-02   2.725e+01   9.193e-02
1.383e+01   1.467e+01   1.350e+01   1.501e-02   2.772e+01   1.231e-01
1.569e+01   1.678e+01   1.390e+01   1.548e-02   2.818e+01   1.130e-01
1.779e+01   1.922e+01   1.426e+01   1.487e-02   2.860e+01   6.623e-02
2.017e+01   2.205e+01   1.460e+01   1.662e-02   2.894e+01   6.946e-02
2.288e+01   2.535e+01   1.491e+01   1.877e-02   2.922e+01   1.156e-01
2.595e+01   2.923e+01   1.520e+01   1.867e-02   2.949e+01   1.190e-01
2.943e+01   3.380e+01   1.547e+01   1.620e-02   2.979e+01   1.022e-01
3.337e+01   3.925e+01   1.572e+01   1.248e-02   3.010e+01   9.904e-02
3.785e+01   4.584e+01   1.596e+01   9.097e-03   3.040e+01   1.376e-01
4.293e+01   5.397e+01   1.619e+01   7.039e-03   3.066e+01   1.884e-01
4.868e+01   6.434e+01   1.641e+01   5.803e-03   3.083e+01   1.552e-01
5.521e+01   7.853e+01   1.661e+01   7.325e-03   3.092e+01   1.183e-01
6.262e+01   1.035e+02   1.680e+01   1.262e-02   3.097e+01   2.095e-01
7.101e+01   1.500e+02   1.699e+01   1.809e-02   3.102e+01   2.351e-01