File: CO2_REF_ISOTHERMS/AIF/co2_uio66_300K.aif
data_CO2_UiO66_300K
_exptl_date 2022-09-01
_exptl_temperature 300
_adsnt_material_id UiO-66
_adsnt_filename 'data.UiO66_Snurr_rep222'
_units_temperature K
_units_fugacity BAR
_units_pressure BAR
_units_loading MOL-PER-KiloGM
_units_qst KiloJ-PER-MOL
_exptl_isotherm_type absolute
_exptl_adsorptive_name 'Carbon Dioxide'
_forcefield_adsorptive 'TraPPE CO2; 12ang linear-force shift'
_forcefield_adsnt 'see adsorbent file'

loop_
_adsorp_fugacity
_adsorp_pressure
_adsorp_amount
_adsorp_amount_uncertainty
_adsorp_qst
_adsorp_qst_uncertainty
2.758e-04   2.759e-04   1.104e-03   6.579e-05   2.368e+01   2.347e-03
3.128e-04   3.129e-04   1.252e-03   7.502e-05   2.368e+01   2.326e-03
3.548e-04   3.549e-04   1.419e-03   8.559e-05   2.368e+01   2.308e-03
4.023e-04   4.025e-04   1.609e-03   9.770e-05   2.368e+01   2.294e-03
4.563e-04   4.564e-04   1.824e-03   1.116e-04   2.368e+01   2.286e-03
5.175e-04   5.176e-04   2.067e-03   1.276e-04   2.368e+01   2.288e-03
5.869e-04   5.871e-04   2.343e-03   1.459e-04   2.368e+01   2.300e-03
6.656e-04   6.658e-04   2.655e-03   1.670e-04   2.368e+01   2.325e-03
7.549e-04   7.551e-04   3.008e-03   1.912e-04   2.368e+01   2.366e-03
8.561e-04   8.563e-04   3.409e-03   2.191e-04   2.368e+01   2.424e-03
9.709e-04   9.712e-04   3.862e-03   2.511e-04   2.368e+01   2.500e-03
1.101e-03   1.101e-03   4.375e-03   2.879e-04   2.368e+01   2.594e-03
1.249e-03   1.249e-03   4.956e-03   3.302e-04   2.368e+01   2.706e-03
1.416e-03   1.417e-03   5.613e-03   3.787e-04   2.369e+01   2.834e-03
1.606e-03   1.607e-03   6.356e-03   4.342e-04   2.369e+01   2.977e-03
1.822e-03   1.822e-03   7.198e-03   4.974e-04   2.369e+01   3.134e-03
2.066e-03   2.066e-03   8.149e-03   5.692e-04   2.369e+01   3.307e-03
2.343e-03   2.344e-03   9.225e-03   6.502e-04   2.369e+01   3.500e-03
2.657e-03   2.658e-03   1.044e-02   7.412e-04   2.369e+01   3.720e-03
3.013e-03   3.014e-03   1.182e-02   8.422e-04   2.370e+01   3.978e-03
3.418e-03   3.419e-03   1.338e-02   9.535e-04   2.370e+01   4.290e-03
3.876e-03   3.877e-03   1.514e-02   1.074e-03   2.370e+01   4.670e-03
4.396e-03   4.397e-03   1.713e-02   1.204e-03   2.370e+01   5.132e-03
4.985e-03   4.987e-03   1.938e-02   1.339e-03   2.371e+01   5.674e-03
5.654e-03   5.655e-03   2.193e-02   1.478e-03   2.371e+01   6.286e-03
6.412e-03   6.414e-03   2.482e-02   1.615e-03   2.372e+01   6.933e-03
7.272e-03   7.274e-03   2.808e-02   1.746e-03   2.372e+01   7.565e-03
8.247e-03   8.249e-03   3.178e-02   1.863e-03   2.373e+01   8.110e-03
9.353e-03   9.356e-03   3.596e-02   1.958e-03   2.373e+01   8.485e-03
1.061e-02   1.061e-02   4.069e-02   2.023e-03   2.374e+01   8.606e-03
1.203e-02   1.203e-02   4.605e-02   2.049e-03   2.374e+01   8.417e-03
1.364e-02   1.365e-02   5.210e-02   2.032e-03   2.375e+01   7.940e-03
1.547e-02   1.548e-02   5.894e-02   1.968e-03   2.376e+01   7.330e-03
1.755e-02   1.755e-02   6.668e-02   1.861e-03   2.377e+01   6.889e-03
1.990e-02   1.991e-02   7.540e-02   1.723e-03   2.378e+01   6.852e-03
2.257e-02   2.258e-02   8.525e-02   1.575e-03   2.380e+01   7.029e-03
2.560e-02   2.561e-02   9.634e-02   1.450e-03   2.381e+01   6.847e-03
2.903e-02   2.904e-02   1.088e-01   1.399e-03   2.383e+01   5.830e-03
3.292e-02   3.294e-02   1.228e-01   1.473e-03   2.385e+01   4.147e-03
3.734e-02   3.735e-02   1.386e-01   1.688e-03   2.387e+01   3.645e-03
4.234e-02   4.236e-02   1.562e-01   1.995e-03   2.390e+01   5.716e-03
4.802e-02   4.804e-02   1.759e-01   2.306e-03   2.393e+01   8.312e-03
5.446e-02   5.449e-02   1.981e-01   2.536e-03   2.396e+01   1.097e-02
6.177e-02   6.180e-02   2.229e-01   2.609e-03   2.399e+01   1.444e-02
7.005e-02   7.009e-02   2.506e-01   2.454e-03   2.403e+01   1.825e-02
7.944e-02   7.949e-02   2.815e-01   2.084e-03   2.407e+01   2.026e-02
9.010e-02   9.015e-02   3.157e-01   2.010e-03   2.412e+01   1.968e-02
1.022e-01   1.022e-01   3.536e-01   2.904e-03   2.417e+01   1.963e-02
1.159e-01   1.160e-01   3.953e-01   4.003e-03   2.423e+01   2.135e-02
1.314e-01   1.315e-01   4.414e-01   4.342e-03   2.429e+01   1.861e-02
1.490e-01   1.492e-01   4.921e-01   3.673e-03   2.436e+01   9.820e-03
1.690e-01   1.692e-01   5.478e-01   2.535e-03   2.444e+01   1.162e-02
1.917e-01   1.919e-01   6.088e-01   1.861e-03   2.452e+01   1.341e-02
2.174e-01   2.177e-01   6.753e-01   2.163e-03   2.461e+01   9.383e-03
2.466e-01   2.469e-01   7.475e-01   2.666e-03   2.470e+01   2.129e-02
2.796e-01   2.800e-01   8.256e-01   2.780e-03   2.480e+01   2.647e-02
3.171e-01   3.176e-01   9.095e-01   2.739e-03   2.490e+01   2.505e-02
3.597e-01   3.603e-01   9.995e-01   2.472e-03   2.501e+01   3.438e-02
4.079e-01   4.087e-01   1.096e+00   2.070e-03   2.512e+01   4.259e-02
4.626e-01   4.636e-01   1.199e+00   2.850e-03   2.525e+01   3.609e-02
5.246e-01   5.259e-01   1.308e+00   3.924e-03   2.538e+01   1.899e-02
5.950e-01   5.966e-01   1.422e+00   3.833e-03   2.549e+01   3.269e-02
6.748e-01   6.768e-01   1.541e+00   2.909e-03   2.560e+01   3.444e-02
7.653e-01   7.678e-01   1.665e+00   2.321e-03   2.572e+01   5.663e-02
8.679e-01   8.712e-01   1.793e+00   2.826e-03   2.582e+01   3.353e-02
9.843e-01   9.885e-01   1.927e+00   2.885e-03   2.590e+01   4.510e-02
1.116e+00   1.122e+00   2.064e+00   2.811e-03   2.597e+01   1.911e-02
1.266e+00   1.273e+00   2.205e+00   2.314e-03   2.605e+01   4.970e-02
1.436e+00   1.444e+00   2.350e+00   1.407e-03   2.611e+01   5.512e-02
1.628e+00   1.639e+00   2.499e+00   8.692e-04   2.615e+01   4.384e-02
1.847e+00   1.861e+00   2.652e+00   8.505e-04   2.617e+01   6.474e-02
2.094e+00   2.113e+00   2.808e+00   1.159e-03   2.616e+01   2.479e-02
2.375e+00   2.399e+00   2.967e+00   7.905e-04   2.609e+01   8.116e-02
2.694e+00   2.724e+00   3.127e+00   1.502e-03   2.604e+01   1.954e-02
3.055e+00   3.094e+00   3.290e+00   2.072e-03   2.604e+01   3.082e-02
3.465e+00   3.514e+00   3.455e+00   6.323e-04   2.596e+01   9.852e-02
3.929e+00   3.993e+00   3.620e+00   2.353e-03   2.578e+01   6.664e-02
4.456e+00   4.538e+00   3.786e+00   2.921e-03   2.567e+01   4.531e-02
5.054e+00   5.160e+00   3.953e+00   3.395e-03   2.562e+01   1.006e-01
5.732e+00   5.868e+00   4.119e+00   3.121e-03   2.552e+01   9.800e-02
6.500e+00   6.676e+00   4.285e+00   2.946e-03   2.546e+01   6.813e-02
7.372e+00   7.599e+00   4.449e+00   3.868e-03   2.538e+01   1.753e-01
8.360e+00   8.654e+00   4.610e+00   2.819e-03   2.519e+01   1.146e-01
9.482e+00   9.862e+00   4.766e+00   7.606e-04   2.509e+01   2.086e-01
1.075e+01   1.125e+01   4.918e+00   1.431e-03   2.511e+01   1.936e-01
1.220e+01   1.284e+01   5.067e+00   2.623e-03   2.510e+01   1.853e-01
1.383e+01   1.467e+01   5.212e+00   2.923e-03   2.500e+01   1.881e-01
1.569e+01   1.678e+01   5.349e+00   1.739e-03   2.482e+01   1.698e-01
1.779e+01   1.922e+01   5.481e+00   1.536e-03   2.475e+01   1.214e-01
2.017e+01   2.205e+01   5.607e+00   7.698e-04   2.480e+01   1.855e-01
2.288e+01   2.535e+01   5.729e+00   1.824e-03   2.479e+01   1.488e-01
2.595e+01   2.923e+01   5.845e+00   2.379e-03   2.472e+01   1.491e-01
2.943e+01   3.380e+01   5.955e+00   1.695e-03   2.459e+01   2.317e-01
3.337e+01   3.925e+01   6.061e+00   8.636e-04   2.451e+01   1.891e-01
3.785e+01   4.584e+01   6.163e+00   2.255e-03   2.457e+01   3.399e-01
4.293e+01   5.397e+01   6.262e+00   3.764e-03   2.463e+01   2.251e-01
4.868e+01   6.434e+01   6.358e+00   4.114e-03   2.464e+01   2.294e-01
5.521e+01   7.853e+01   6.451e+00   3.581e-03   2.468e+01   2.965e-01
6.262e+01   1.035e+02   6.542e+00   3.200e-03   2.469e+01   2.886e-01
7.101e+01   1.500e+02   6.632e+00   3.294e-03   2.464e+01   1.832e-01