File: CO2_REF_ISOTHERMS/AIF/co2_zif8_300K.aif
data_CO2_ZIF8_300K
_exptl_date 2022-08-31
_exptl_temperature 300
_adsnt_material_id ZIF-8
_adsnt_filename 'data.ZIF8_Snurr_rep222'
_units_temperature K
_units_pressure BAR
_units_loading MOL_PER_KG
_units_qst KiloJ_PER_MOL
_exptl_isotherm_type absolute
_exptl_adsorptive_name 'Carbon Dioxide'
_forcefield_adsorptive 'TraPPE CO2; 12ang linear-force shift'
_forcefield_adsnt 'see adsnt file'

loop_
_adsorp_fugacity
_adsorp_pressure
_adsorp_amount
_adsorp_amount_uncertainty
_adsorp_qst
_adsorp_qst_uncertainty
-1.883e+01   2.759e-04   1.862e-04   4.174e-06   1.645e+01   2.699e-02
-1.870e+01   3.129e-04   2.111e-04   4.732e-06   1.645e+01   2.697e-02
-1.858e+01   3.549e-04   2.395e-04   5.364e-06   1.645e+01   2.694e-02
-1.845e+01   4.025e-04   2.716e-04   6.080e-06   1.645e+01   2.692e-02
-1.832e+01   4.564e-04   3.080e-04   6.891e-06   1.645e+01   2.689e-02
-1.820e+01   5.176e-04   3.493e-04   7.810e-06   1.645e+01   2.686e-02
-1.807e+01   5.871e-04   3.961e-04   8.851e-06   1.645e+01   2.682e-02
-1.795e+01   6.658e-04   4.493e-04   1.003e-05   1.645e+01   2.677e-02
-1.782e+01   7.551e-04   5.095e-04   1.136e-05   1.645e+01   2.672e-02
-1.769e+01   8.563e-04   5.778e-04   1.287e-05   1.645e+01   2.667e-02
-1.757e+01   9.712e-04   6.553e-04   1.458e-05   1.645e+01   2.661e-02
-1.744e+01   1.101e-03   7.432e-04   1.651e-05   1.645e+01   2.654e-02
-1.732e+01   1.249e-03   8.429e-04   1.869e-05   1.645e+01   2.645e-02
-1.719e+01   1.417e-03   9.559e-04   2.116e-05   1.645e+01   2.636e-02
-1.707e+01   1.607e-03   1.084e-03   2.394e-05   1.645e+01   2.626e-02
-1.694e+01   1.822e-03   1.229e-03   2.708e-05   1.645e+01   2.614e-02
-1.681e+01   2.066e-03   1.394e-03   3.063e-05   1.645e+01   2.601e-02
-1.669e+01   2.344e-03   1.581e-03   3.463e-05   1.645e+01   2.586e-02
-1.656e+01   2.658e-03   1.793e-03   3.913e-05   1.645e+01   2.569e-02
-1.644e+01   3.014e-03   2.034e-03   4.419e-05   1.645e+01   2.550e-02
-1.631e+01   3.419e-03   2.307e-03   4.989e-05   1.645e+01   2.529e-02
-1.618e+01   3.877e-03   2.616e-03   5.627e-05   1.645e+01   2.505e-02
-1.606e+01   4.397e-03   2.967e-03   6.344e-05   1.645e+01   2.477e-02
-1.593e+01   4.987e-03   3.365e-03   7.145e-05   1.645e+01   2.447e-02
-1.581e+01   5.655e-03   3.816e-03   8.039e-05   1.645e+01   2.412e-02
-1.568e+01   6.414e-03   4.328e-03   9.036e-05   1.645e+01   2.374e-02
-1.556e+01   7.274e-03   4.909e-03   1.014e-04   1.645e+01   2.330e-02
-1.543e+01   8.249e-03   5.567e-03   1.137e-04   1.645e+01   2.281e-02
-1.530e+01   9.356e-03   6.314e-03   1.273e-04   1.645e+01   2.227e-02
-1.518e+01   1.061e-02   7.161e-03   1.421e-04   1.645e+01   2.166e-02
-1.505e+01   1.203e-02   8.121e-03   1.584e-04   1.646e+01   2.099e-02
-1.493e+01   1.365e-02   9.211e-03   1.761e-04   1.646e+01   2.024e-02
-1.480e+01   1.548e-02   1.045e-02   1.953e-04   1.646e+01   1.941e-02
-1.467e+01   1.755e-02   1.185e-02   2.157e-04   1.646e+01   1.849e-02
-1.455e+01   1.991e-02   1.344e-02   2.374e-04   1.646e+01   1.749e-02
-1.442e+01   2.258e-02   1.524e-02   2.601e-04   1.646e+01   1.639e-02
-1.430e+01   2.561e-02   1.729e-02   2.834e-04   1.646e+01   1.520e-02
-1.417e+01   2.904e-02   1.961e-02   3.070e-04   1.647e+01   1.392e-02
-1.405e+01   3.294e-02   2.224e-02   3.301e-04   1.647e+01   1.254e-02
-1.392e+01   3.735e-02   2.523e-02   3.519e-04   1.647e+01   1.109e-02
-1.379e+01   4.236e-02   2.861e-02   3.715e-04   1.647e+01   9.567e-03
-1.367e+01   4.804e-02   3.246e-02   3.877e-04   1.648e+01   7.991e-03
-1.354e+01   5.449e-02   3.682e-02   3.990e-04   1.648e+01   6.385e-03
-1.342e+01   6.180e-02   4.177e-02   4.041e-04   1.648e+01   4.783e-03
-1.329e+01   7.009e-02   4.739e-02   4.017e-04   1.649e+01   3.236e-03
-1.316e+01   7.949e-02   5.377e-02   3.909e-04   1.649e+01   1.897e-03
-1.304e+01   9.015e-02   6.100e-02   3.720e-04   1.649e+01   1.455e-03
-1.291e+01   1.022e-01   6.922e-02   3.471e-04   1.650e+01   2.425e-03
-1.279e+01   1.160e-01   7.854e-02   3.220e-04   1.651e+01   3.878e-03
-1.266e+01   1.315e-01   8.913e-02   3.080e-04   1.651e+01   5.506e-03
-1.254e+01   1.492e-01   1.011e-01   3.206e-04   1.652e+01   7.291e-03
-1.241e+01   1.692e-01   1.148e-01   3.713e-04   1.653e+01   9.254e-03
-1.228e+01   1.919e-01   1.303e-01   4.593e-04   1.654e+01   1.140e-02
-1.216e+01   2.177e-01   1.479e-01   5.766e-04   1.656e+01   1.365e-02
-1.203e+01   2.469e-01   1.679e-01   7.140e-04   1.657e+01   1.583e-02
-1.191e+01   2.800e-01   1.906e-01   8.606e-04   1.659e+01   1.763e-02
-1.178e+01   3.176e-01   2.164e-01   1.003e-03   1.661e+01   1.855e-02
-1.165e+01   3.603e-01   2.458e-01   1.125e-03   1.663e+01   1.808e-02
-1.153e+01   4.087e-01   2.792e-01   1.206e-03   1.666e+01   1.596e-02
-1.140e+01   4.636e-01   3.172e-01   1.216e-03   1.668e+01   1.267e-02
-1.128e+01   5.259e-01   3.605e-01   1.108e-03   1.672e+01   1.038e-02
-1.115e+01   5.966e-01   4.099e-01   8.291e-04   1.675e+01   1.206e-02
-1.102e+01   6.768e-01   4.662e-01   5.004e-04   1.680e+01   1.649e-02
-1.090e+01   7.678e-01   5.304e-01   9.178e-04   1.685e+01   2.037e-02
-1.077e+01   8.712e-01   6.037e-01   1.817e-03   1.691e+01   2.145e-02
-1.065e+01   9.885e-01   6.872e-01   2.669e-03   1.698e+01   1.948e-02
-1.052e+01   1.122e+00   7.823e-01   3.200e-03   1.705e+01   1.628e-02
-1.040e+01   1.273e+00   8.906e-01   3.344e-03   1.714e+01   1.341e-02
-1.027e+01   1.444e+00   1.014e+00   3.169e-03   1.724e+01   1.114e-02
-1.014e+01   1.639e+00   1.155e+00   2.487e-03   1.735e+01   1.195e-02
-1.002e+01   1.861e+00   1.315e+00   1.524e-03   1.748e+01   1.519e-02
-9.892e+00   2.113e+00   1.497e+00   1.874e-03   1.762e+01   1.784e-02
-9.766e+00   2.399e+00   1.703e+00   2.379e-03   1.779e+01   1.965e-02
-9.641e+00   2.724e+00   1.935e+00   3.184e-03   1.799e+01   1.374e-02
-9.515e+00   3.094e+00   2.197e+00   3.774e-03   1.822e+01   6.428e-03
-9.389e+00   3.514e+00   2.489e+00   3.242e-03   1.848e+01   2.015e-02
-9.263e+00   3.993e+00   2.810e+00   1.517e-03   1.877e+01   1.786e-02
-9.137e+00   4.538e+00   3.160e+00   1.150e-03   1.908e+01   1.069e-02
-9.011e+00   5.160e+00   3.534e+00   9.441e-04   1.942e+01   1.455e-02
-8.886e+00   5.868e+00   3.927e+00   1.247e-03   1.982e+01   3.955e-03
-8.760e+00   6.676e+00   4.334e+00   9.092e-04   2.025e+01   3.151e-03
-8.634e+00   7.599e+00   4.745e+00   2.010e-03   2.070e+01   1.289e-02
-8.508e+00   8.654e+00   5.155e+00   2.508e-03   2.115e+01   1.608e-02
-8.382e+00   9.862e+00   5.555e+00   2.744e-03   2.163e+01   2.104e-02
-8.256e+00   1.125e+01   5.939e+00   2.289e-03   2.211e+01   9.003e-03
-8.130e+00   1.284e+01   6.305e+00   1.573e-03   2.260e+01   1.913e-02
-8.005e+00   1.467e+01   6.652e+00   2.588e-03   2.308e+01   3.543e-02
-7.879e+00   1.678e+01   6.979e+00   3.389e-03   2.356e+01   1.069e-02
-7.753e+00   1.922e+01   7.288e+00   1.202e-03   2.403e+01   7.315e-02
-7.627e+00   2.205e+01   7.579e+00   4.131e-03   2.447e+01   8.085e-02
-7.501e+00   2.535e+01   7.851e+00   4.090e-03   2.488e+01   4.290e-02
-7.375e+00   2.923e+01   8.108e+00   2.546e-03   2.525e+01   7.504e-02
-7.250e+00   3.380e+01   8.348e+00   3.096e-03   2.558e+01   7.929e-02
-7.124e+00   3.925e+01   8.575e+00   2.680e-03   2.589e+01   5.873e-02
-6.998e+00   4.584e+01   8.788e+00   2.045e-03   2.618e+01   9.034e-02
-6.872e+00   5.397e+01   8.990e+00   1.495e-03   2.644e+01   1.046e-01
-6.746e+00   6.434e+01   9.182e+00   1.167e-03   2.672e+01   6.446e-02
-6.620e+00   7.853e+01   9.365e+00   2.997e-03   2.699e+01   7.767e-02
-6.494e+00   1.035e+02   9.539e+00   4.516e-03   2.721e+01   8.017e-02
-6.369e+00   1.500e+02   9.706e+00   6.643e-03   2.739e+01   1.233e-01