File: CO2_REF_ISOTHERMS/AIF/co2_cubtc_350K.aif
data_CO2_CuBTC_350K
_exptl_date 2022-09-16
_exptl_temperature 350
_adsnt_material_id CuBTC
_simltn_adsorbent_filename 'data.CuBTC_CaleroIV_rep111'
_units_temperature K
_units_fugacity BAR
_units_pressure BAR
_units_loading MOL-PER-KiloGM
_units_qst KiloJ-PER-MOL
_exptl_isotherm_type absolute
_exptl_adsorptive_name 'Carbon Dioxide'
_simltn_forcefield_adsorptive 'TraPPE CO2; 12ang linear-force shift'
_simltn_forcefield_adsorbent 'see adsorbent file'

loop_
_adsorp_fugacity
_adsorp_pressure
_adsorp_amount
_adsorp_amount_uncertainty
_adsorp_qst
_adsorp_qst_uncertainty
1.794e-03   1.795e-03   1.615e-03   1.300e-05   2.257e+01   7.264e-02
2.004e-03   2.006e-03   1.804e-03   1.449e-05   2.257e+01   7.239e-02
2.240e-03   2.241e-03   2.016e-03   1.615e-05   2.257e+01   7.212e-02
2.502e-03   2.504e-03   2.252e-03   1.798e-05   2.257e+01   7.181e-02
2.796e-03   2.798e-03   2.516e-03   2.002e-05   2.257e+01   7.147e-02
3.124e-03   3.126e-03   2.811e-03   2.228e-05   2.257e+01   7.109e-02
3.491e-03   3.493e-03   3.141e-03   2.478e-05   2.257e+01   7.067e-02
3.900e-03   3.903e-03   3.509e-03   2.755e-05   2.257e+01   7.021e-02
4.358e-03   4.361e-03   3.921e-03   3.062e-05   2.257e+01   6.969e-02
4.869e-03   4.873e-03   4.380e-03   3.400e-05   2.257e+01   6.912e-02
5.440e-03   5.444e-03   4.894e-03   3.774e-05   2.257e+01   6.849e-02
6.079e-03   6.083e-03   5.467e-03   4.185e-05   2.257e+01   6.779e-02
6.792e-03   6.797e-03   6.108e-03   4.638e-05   2.257e+01   6.703e-02
7.589e-03   7.595e-03   6.823e-03   5.136e-05   2.257e+01   6.619e-02
8.480e-03   8.486e-03   7.623e-03   5.682e-05   2.256e+01   6.526e-02
9.475e-03   9.481e-03   8.515e-03   6.280e-05   2.256e+01   6.425e-02
1.059e-02   1.059e-02   9.512e-03   6.935e-05   2.256e+01   6.315e-02
1.183e-02   1.184e-02   1.063e-02   7.650e-05   2.256e+01   6.194e-02
1.322e-02   1.323e-02   1.187e-02   8.431e-05   2.256e+01   6.064e-02
1.477e-02   1.478e-02   1.326e-02   9.282e-05   2.256e+01   5.923e-02
1.650e-02   1.651e-02   1.481e-02   1.021e-04   2.256e+01   5.772e-02
1.844e-02   1.845e-02   1.654e-02   1.122e-04   2.256e+01   5.611e-02
2.060e-02   2.061e-02   1.847e-02   1.233e-04   2.255e+01   5.439e-02
2.302e-02   2.303e-02   2.063e-02   1.354e-04   2.255e+01   5.259e-02
2.572e-02   2.574e-02   2.304e-02   1.487e-04   2.255e+01   5.071e-02
2.873e-02   2.876e-02   2.572e-02   1.635e-04   2.255e+01   4.878e-02
3.211e-02   3.213e-02   2.872e-02   1.801e-04   2.254e+01   4.681e-02
3.587e-02   3.590e-02   3.207e-02   1.988e-04   2.254e+01   4.486e-02
4.008e-02   4.012e-02   3.580e-02   2.203e-04   2.254e+01   4.296e-02
4.479e-02   4.482e-02   3.997e-02   2.453e-04   2.253e+01   4.116e-02
5.004e-02   5.008e-02   4.461e-02   2.746e-04   2.253e+01   3.953e-02
5.591e-02   5.596e-02   4.980e-02   3.095e-04   2.252e+01   3.812e-02
6.247e-02   6.253e-02   5.557e-02   3.511e-04   2.252e+01   3.697e-02
6.981e-02   6.987e-02   6.201e-02   4.010e-04   2.251e+01   3.612e-02
7.800e-02   7.807e-02   6.919e-02   4.607e-04   2.251e+01   3.557e-02
8.715e-02   8.723e-02   7.719e-02   5.316e-04   2.250e+01   3.529e-02
9.737e-02   9.746e-02   8.610e-02   6.152e-04   2.249e+01   3.522e-02
1.088e-01   1.089e-01   9.602e-02   7.123e-04   2.249e+01   3.524e-02
1.216e-01   1.217e-01   1.071e-01   8.236e-04   2.248e+01   3.527e-02
1.358e-01   1.360e-01   1.194e-01   9.487e-04   2.247e+01   3.519e-02
1.518e-01   1.519e-01   1.331e-01   1.086e-03   2.246e+01   3.493e-02
1.696e-01   1.698e-01   1.483e-01   1.234e-03   2.245e+01   3.446e-02
1.895e-01   1.897e-01   1.653e-01   1.386e-03   2.244e+01   3.381e-02
2.117e-01   2.120e-01   1.841e-01   1.538e-03   2.242e+01   3.312e-02
2.366e-01   2.368e-01   2.050e-01   1.681e-03   2.241e+01   3.258e-02
2.643e-01   2.647e-01   2.283e-01   1.807e-03   2.239e+01   3.244e-02
2.953e-01   2.957e-01   2.541e-01   1.906e-03   2.237e+01   3.291e-02
3.300e-01   3.305e-01   2.827e-01   1.971e-03   2.235e+01   3.406e-02
3.687e-01   3.693e-01   3.144e-01   2.001e-03   2.233e+01   3.576e-02
4.120e-01   4.126e-01   3.495e-01   2.004e-03   2.230e+01   3.771e-02
4.603e-01   4.611e-01   3.882e-01   2.004e-03   2.227e+01   3.948e-02
5.143e-01   5.153e-01   4.310e-01   2.037e-03   2.223e+01   4.063e-02
5.747e-01   5.758e-01   4.782e-01   2.148e-03   2.219e+01   4.080e-02
6.421e-01   6.435e-01   5.302e-01   2.360e-03   2.215e+01   3.979e-02
7.174e-01   7.191e-01   5.874e-01   2.661e-03   2.210e+01   3.770e-02
8.016e-01   8.036e-01   6.504e-01   3.000e-03   2.205e+01   3.498e-02
8.957e-01   8.981e-01   7.196e-01   3.311e-03   2.199e+01   3.232e-02
1.001e+00   1.004e+00   7.956e-01   3.527e-03   2.193e+01   3.019e-02
1.118e+00   1.122e+00   8.790e-01   3.588e-03   2.186e+01   2.854e-02
1.249e+00   1.254e+00   9.704e-01   3.451e-03   2.179e+01   2.707e-02
1.396e+00   1.401e+00   1.071e+00   3.105e-03   2.172e+01   2.592e-02
1.560e+00   1.566e+00   1.181e+00   2.659e-03   2.164e+01   2.518e-02
1.743e+00   1.751e+00   1.301e+00   2.462e-03   2.156e+01   2.384e-02
1.947e+00   1.957e+00   1.432e+00   2.831e-03   2.148e+01   2.075e-02
2.176e+00   2.188e+00   1.576e+00   3.418e-03   2.139e+01   1.944e-02
2.431e+00   2.446e+00   1.734e+00   3.645e-03   2.131e+01   2.688e-02
2.716e+00   2.735e+00   1.906e+00   3.257e-03   2.123e+01   3.665e-02
3.035e+00   3.058e+00   2.094e+00   2.583e-03   2.115e+01   3.871e-02
3.391e+00   3.419e+00   2.299e+00   2.578e-03   2.107e+01   3.162e-02
3.789e+00   3.824e+00   2.524e+00   3.439e-03   2.100e+01   2.613e-02
4.234e+00   4.277e+00   2.769e+00   4.427e-03   2.094e+01   2.734e-02
4.731e+00   4.784e+00   3.038e+00   4.926e-03   2.090e+01   2.496e-02
5.286e+00   5.352e+00   3.330e+00   4.447e-03   2.089e+01   1.689e-02
5.906e+00   5.988e+00   3.649e+00   3.704e-03   2.090e+01   4.829e-03
6.599e+00   6.701e+00   3.995e+00   4.429e-03   2.094e+01   1.543e-02
7.373e+00   7.501e+00   4.372e+00   5.370e-03   2.101e+01   2.733e-02
8.238e+00   8.398e+00   4.779e+00   4.682e-03   2.111e+01   3.206e-02
9.205e+00   9.404e+00   5.218e+00   2.668e-03   2.124e+01   3.566e-02
1.029e+01   1.053e+01   5.685e+00   4.927e-03   2.142e+01   4.391e-02
1.149e+01   1.180e+01   6.179e+00   9.240e-03   2.165e+01   3.974e-02
1.284e+01   1.323e+01   6.696e+00   1.064e-02   2.192e+01   2.444e-02
1.435e+01   1.484e+01   7.231e+00   8.057e-03   2.222e+01   4.896e-02
1.603e+01   1.665e+01   7.777e+00   4.451e-03   2.255e+01   7.990e-02
1.791e+01   1.869e+01   8.325e+00   8.258e-03   2.292e+01   7.766e-02
2.001e+01   2.099e+01   8.868e+00   1.215e-02   2.332e+01   3.932e-02
2.236e+01   2.359e+01   9.399e+00   1.177e-02   2.373e+01   5.751e-02
2.499e+01   2.654e+01   9.913e+00   9.121e-03   2.414e+01   6.142e-02
2.792e+01   2.988e+01   1.041e+01   7.545e-03   2.456e+01   4.016e-02
3.119e+01   3.368e+01   1.088e+01   7.134e-03   2.498e+01   1.962e-02
3.485e+01   3.801e+01   1.132e+01   6.859e-03   2.540e+01   2.120e-02
3.894e+01   4.296e+01   1.174e+01   5.764e-03   2.580e+01   4.659e-02
4.351e+01   4.864e+01   1.214e+01   4.471e-03   2.619e+01   3.560e-02
4.862e+01   5.518e+01   1.251e+01   4.088e-03   2.655e+01   2.615e-02
5.432e+01   6.276e+01   1.287e+01   4.236e-03   2.691e+01   7.251e-02
6.070e+01   7.160e+01   1.320e+01   4.593e-03   2.725e+01   1.144e-01
6.782e+01   8.199e+01   1.351e+01   6.334e-03   2.758e+01   1.280e-01
7.578e+01   9.434e+01   1.381e+01   8.595e-03   2.789e+01   9.810e-02
8.467e+01   1.092e+02   1.409e+01   9.736e-03   2.816e+01   6.059e-02
9.461e+01   1.274e+02   1.436e+01   9.718e-03   2.841e+01   6.548e-02
1.057e+02   1.500e+02   1.461e+01   8.804e-03   2.864e+01   1.282e-01