File: CO2_REF_ISOTHERMS/AIF/co2_uio66_350K.aif
data_CO2_UiO66_350K
_exptl_date 2022-09-18
_exptl_temperature 350
_adsorbent_material_id UiO-66
_adsorbent_filename 'data.UiO66_Snurr_rep222'
_units_temperature K
_units_pressure BAR
_units_loading MOL_PER_KG
_units_qst KiloJ_PER_MOL
_isotherm_type absolute
_exptl_adsorptive_name 'Carbon Dioxide'
_forcefield_asorptive 'TraPPE CO2; 12ang linear-force shift'
_forcefield_adsorbent 'see adsorbent file'

loop_
_adsorp_fugacity
_adsorp_pressure
_adsorp_amount
_adsorp_amount_uncertainty
_adsorp_qst
_adsorp_qst_uncertainty
-1.711e+01   1.795e-03   1.788e-03   7.929e-05   2.346e+01   8.079e-03
-1.700e+01   2.006e-03   1.998e-03   8.805e-05   2.346e+01   7.852e-03
-1.689e+01   2.241e-03   2.233e-03   9.772e-05   2.346e+01   7.611e-03
-1.678e+01   2.504e-03   2.496e-03   1.084e-04   2.346e+01   7.360e-03
-1.667e+01   2.798e-03   2.789e-03   1.201e-04   2.346e+01   7.100e-03
-1.655e+01   3.126e-03   3.117e-03   1.329e-04   2.346e+01   6.834e-03
-1.644e+01   3.493e-03   3.484e-03   1.469e-04   2.346e+01   6.568e-03
-1.633e+01   3.903e-03   3.893e-03   1.622e-04   2.346e+01   6.307e-03
-1.622e+01   4.361e-03   4.351e-03   1.788e-04   2.346e+01   6.059e-03
-1.611e+01   4.873e-03   4.863e-03   1.968e-04   2.346e+01   5.833e-03
-1.600e+01   5.444e-03   5.435e-03   2.163e-04   2.346e+01   5.637e-03
-1.589e+01   6.083e-03   6.074e-03   2.372e-04   2.346e+01   5.481e-03
-1.578e+01   6.797e-03   6.788e-03   2.595e-04   2.346e+01   5.372e-03
-1.567e+01   7.595e-03   7.586e-03   2.833e-04   2.347e+01   5.315e-03
-1.556e+01   8.486e-03   8.478e-03   3.084e-04   2.347e+01   5.309e-03
-1.544e+01   9.481e-03   9.473e-03   3.347e-04   2.347e+01   5.348e-03
-1.533e+01   1.059e-02   1.058e-02   3.622e-04   2.347e+01   5.423e-03
-1.522e+01   1.184e-02   1.183e-02   3.904e-04   2.347e+01   5.519e-03
-1.511e+01   1.323e-02   1.321e-02   4.193e-04   2.347e+01   5.623e-03
-1.500e+01   1.478e-02   1.476e-02   4.486e-04   2.347e+01   5.721e-03
-1.489e+01   1.651e-02   1.648e-02   4.778e-04   2.347e+01   5.807e-03
-1.478e+01   1.845e-02   1.840e-02   5.066e-04   2.348e+01   5.881e-03
-1.467e+01   2.061e-02   2.054e-02   5.345e-04   2.348e+01   5.958e-03
-1.456e+01   2.303e-02   2.293e-02   5.612e-04   2.348e+01   6.065e-03
-1.445e+01   2.574e-02   2.558e-02   5.861e-04   2.348e+01   6.246e-03
-1.434e+01   2.876e-02   2.854e-02   6.084e-04   2.348e+01   6.547e-03
-1.422e+01   3.213e-02   3.183e-02   6.272e-04   2.349e+01   7.007e-03
-1.411e+01   3.590e-02   3.549e-02   6.414e-04   2.349e+01   7.628e-03
-1.400e+01   4.012e-02   3.956e-02   6.495e-04   2.349e+01   8.361e-03
-1.389e+01   4.482e-02   4.409e-02   6.501e-04   2.350e+01   9.098e-03
-1.378e+01   5.008e-02   4.912e-02   6.419e-04   2.350e+01   9.677e-03
-1.367e+01   5.596e-02   5.472e-02   6.250e-04   2.351e+01   9.896e-03
-1.356e+01   6.253e-02   6.093e-02   6.013e-04   2.351e+01   9.534e-03
-1.345e+01   6.987e-02   6.785e-02   5.749e-04   2.352e+01   8.399e-03
-1.334e+01   7.807e-02   7.554e-02   5.510e-04   2.353e+01   6.393e-03
-1.323e+01   8.723e-02   8.409e-02   5.329e-04   2.353e+01   3.613e-03
-1.311e+01   9.746e-02   9.360e-02   5.190e-04   2.354e+01   1.204e-03
-1.300e+01   1.089e-01   1.042e-01   5.029e-04   2.355e+01   3.773e-03
-1.289e+01   1.217e-01   1.159e-01   4.812e-04   2.356e+01   6.680e-03
-1.278e+01   1.360e-01   1.289e-01   4.639e-04   2.358e+01   8.481e-03
-1.267e+01   1.519e-01   1.433e-01   4.769e-04   2.359e+01   8.720e-03
-1.256e+01   1.698e-01   1.592e-01   5.370e-04   2.361e+01   7.471e-03
-1.245e+01   1.897e-01   1.768e-01   6.231e-04   2.362e+01   5.890e-03
-1.234e+01   2.120e-01   1.961e-01   6.932e-04   2.364e+01   6.526e-03
-1.223e+01   2.368e-01   2.174e-01   7.117e-04   2.366e+01   9.084e-03
-1.212e+01   2.647e-01   2.409e-01   6.614e-04   2.369e+01   1.088e-02
-1.201e+01   2.957e-01   2.666e-01   5.704e-04   2.372e+01   1.114e-02
-1.189e+01   3.305e-01   2.948e-01   5.844e-04   2.374e+01   1.172e-02
-1.178e+01   3.693e-01   3.256e-01   8.348e-04   2.378e+01   1.395e-02
-1.167e+01   4.126e-01   3.591e-01   1.179e-03   2.381e+01   1.509e-02
-1.156e+01   4.611e-01   3.956e-01   1.439e-03   2.384e+01   1.245e-02
-1.145e+01   5.153e-01   4.352e-01   1.562e-03   2.388e+01   7.981e-03
-1.134e+01   5.758e-01   4.782e-01   1.694e-03   2.392e+01   1.094e-02
-1.123e+01   6.435e-01   5.248e-01   2.035e-03   2.397e+01   1.470e-02
-1.112e+01   7.191e-01   5.750e-01   2.484e-03   2.402e+01   1.146e-02
-1.101e+01   8.036e-01   6.292e-01   2.802e-03   2.407e+01   6.234e-03
-1.090e+01   8.981e-01   6.874e-01   2.849e-03   2.412e+01   1.038e-02
-1.078e+01   1.004e+00   7.498e-01   2.538e-03   2.419e+01   1.260e-02
-1.067e+01   1.122e+00   8.166e-01   1.867e-03   2.425e+01   8.845e-03
-1.056e+01   1.254e+00   8.875e-01   9.752e-04   2.431e+01   1.003e-02
-1.045e+01   1.401e+00   9.620e-01   5.283e-04   2.436e+01   2.686e-02
-1.034e+01   1.566e+00   1.040e+00   9.839e-04   2.443e+01   3.222e-02
-1.023e+01   1.751e+00   1.122e+00   1.732e-03   2.450e+01   1.818e-02
-1.012e+01   1.957e+00   1.209e+00   2.967e-03   2.457e+01   1.544e-02
-1.001e+01   2.188e+00   1.300e+00   3.965e-03   2.463e+01   3.384e-02
-9.897e+00   2.446e+00   1.395e+00   4.465e-03   2.469e+01   2.723e-02
-9.786e+00   2.735e+00   1.494e+00   4.283e-03   2.474e+01   3.304e-02
-9.675e+00   3.058e+00   1.598e+00   3.349e-03   2.479e+01   5.771e-02
-9.564e+00   3.419e+00   1.704e+00   2.657e-03   2.483e+01   2.583e-02
-9.453e+00   3.824e+00   1.815e+00   2.298e-03   2.488e+01   5.790e-02
-9.343e+00   4.277e+00   1.929e+00   2.108e-03   2.494e+01   6.561e-02
-9.232e+00   4.784e+00   2.047e+00   2.422e-03   2.498e+01   2.484e-02
-9.121e+00   5.352e+00   2.170e+00   2.106e-03   2.500e+01   2.274e-02
-9.010e+00   5.988e+00   2.295e+00   1.665e-03   2.500e+01   2.920e-02
-8.899e+00   6.701e+00   2.423e+00   1.418e-03   2.502e+01   4.623e-02
-8.788e+00   7.501e+00   2.556e+00   1.721e-03   2.503e+01   3.614e-02
-8.677e+00   8.398e+00   2.691e+00   1.924e-03   2.504e+01   3.131e-02
-8.566e+00   9.404e+00   2.829e+00   1.857e-03   2.503e+01   5.059e-02
-8.455e+00   1.053e+01   2.970e+00   2.678e-03   2.501e+01   5.645e-02
-8.344e+00   1.180e+01   3.112e+00   3.694e-03   2.500e+01   4.988e-02
-8.233e+00   1.323e+01   3.258e+00   3.333e-03   2.502e+01   3.867e-02
-8.122e+00   1.484e+01   3.405e+00   2.766e-03   2.503e+01   1.200e-02
-8.011e+00   1.665e+01   3.554e+00   2.567e-03   2.504e+01   3.857e-02
-7.900e+00   1.869e+01   3.704e+00   1.756e-03   2.503e+01   5.257e-02
-7.789e+00   2.099e+01   3.854e+00   1.920e-03   2.505e+01   3.713e-02
-7.678e+00   2.359e+01   4.004e+00   1.207e-03   2.513e+01   9.875e-02
-7.567e+00   2.654e+01   4.153e+00   1.235e-03   2.519e+01   4.006e-02
-7.456e+00   2.988e+01   4.301e+00   1.946e-03   2.514e+01   5.324e-02
-7.345e+00   3.368e+01   4.446e+00   2.337e-03   2.511e+01   1.344e-01
-7.234e+00   3.801e+01   4.588e+00   2.604e-03   2.514e+01   7.158e-02
-7.124e+00   4.296e+01   4.728e+00   1.775e-03   2.520e+01   1.677e-01
-7.013e+00   4.864e+01   4.865e+00   1.553e-03   2.527e+01   7.720e-02
-6.902e+00   5.518e+01   4.999e+00   2.448e-03   2.530e+01   1.134e-01
-6.791e+00   6.276e+01   5.129e+00   3.556e-03   2.529e+01   1.006e-01
-6.680e+00   7.160e+01   5.254e+00   3.902e-03   2.528e+01   9.637e-02
-6.569e+00   8.199e+01   5.375e+00   3.272e-03   2.530e+01   2.222e-01
-6.458e+00   9.434e+01   5.492e+00   3.258e-03   2.533e+01   2.168e-01
-6.347e+00   1.092e+02   5.605e+00   3.319e-03   2.535e+01   1.250e-01
-6.236e+00   1.274e+02   5.713e+00   2.625e-03   2.531e+01   1.510e-01
-6.125e+00   1.500e+02   5.817e+00   1.079e-03   2.525e+01   2.580e-01