File: CO2_REF_ISOTHERMS/AIF/co2_irmof1_350K.aif
data_CO2_IRMOF1_350K
_exptl_date 2022-09-16
_exptl_temperature 350
_adsnt_material_id IRMOF-1
_adsnt_filename 'data.IRMOF1_mCBAC_rep111'
_units_temperature K
_units_pressure BAR
_units_loading MOL_PER_KG
_units_qst KiloJ_PER_MOL
_exptl_isotherm_type absolute
_exptl_adsorptive_name 'Carbon Dioxide'
_forcefield_adsorptive 'TraPPE CO2; 12ang linear-force shift'
_forcefield_adsnt 'see adsorbent file'

loop_
_adsorp_fugacity
_adsorp_pressure
_adsorp_amount
_adsorp_amount_uncertainty
_adsorp_qst
_adsorp_qst_uncertainty
-1.711e+01   1.795e-03   5.437e-04   1.848e-06   1.330e+01   2.561e-02
-1.700e+01   2.006e-03   6.075e-04   2.064e-06   1.330e+01   2.560e-02
-1.689e+01   2.241e-03   6.788e-04   2.305e-06   1.330e+01   2.560e-02
-1.678e+01   2.504e-03   7.585e-04   2.574e-06   1.330e+01   2.559e-02
-1.667e+01   2.798e-03   8.475e-04   2.875e-06   1.330e+01   2.559e-02
-1.655e+01   3.126e-03   9.469e-04   3.210e-06   1.330e+01   2.558e-02
-1.644e+01   3.493e-03   1.058e-03   3.583e-06   1.330e+01   2.557e-02
-1.633e+01   3.903e-03   1.182e-03   4.000e-06   1.330e+01   2.556e-02
-1.622e+01   4.361e-03   1.321e-03   4.465e-06   1.330e+01   2.555e-02
-1.611e+01   4.873e-03   1.476e-03   4.983e-06   1.330e+01   2.554e-02
-1.600e+01   5.444e-03   1.649e-03   5.561e-06   1.330e+01   2.553e-02
-1.589e+01   6.083e-03   1.843e-03   6.205e-06   1.330e+01   2.552e-02
-1.578e+01   6.797e-03   2.059e-03   6.923e-06   1.330e+01   2.550e-02
-1.567e+01   7.595e-03   2.300e-03   7.722e-06   1.330e+01   2.549e-02
-1.556e+01   8.486e-03   2.570e-03   8.612e-06   1.330e+01   2.547e-02
-1.544e+01   9.481e-03   2.872e-03   9.602e-06   1.330e+01   2.545e-02
-1.533e+01   1.059e-02   3.209e-03   1.070e-05   1.330e+01   2.542e-02
-1.522e+01   1.184e-02   3.586e-03   1.193e-05   1.330e+01   2.539e-02
-1.511e+01   1.323e-02   4.006e-03   1.329e-05   1.330e+01   2.537e-02
-1.500e+01   1.478e-02   4.476e-03   1.480e-05   1.330e+01   2.533e-02
-1.489e+01   1.651e-02   5.002e-03   1.648e-05   1.330e+01   2.529e-02
-1.478e+01   1.845e-02   5.589e-03   1.834e-05   1.330e+01   2.525e-02
-1.467e+01   2.061e-02   6.244e-03   2.040e-05   1.330e+01   2.520e-02
-1.456e+01   2.303e-02   6.977e-03   2.268e-05   1.330e+01   2.515e-02
-1.445e+01   2.574e-02   7.796e-03   2.521e-05   1.330e+01   2.509e-02
-1.434e+01   2.876e-02   8.711e-03   2.800e-05   1.330e+01   2.502e-02
-1.422e+01   3.213e-02   9.733e-03   3.109e-05   1.330e+01   2.495e-02
-1.411e+01   3.590e-02   1.088e-02   3.449e-05   1.330e+01   2.486e-02
-1.400e+01   4.012e-02   1.215e-02   3.824e-05   1.330e+01   2.477e-02
-1.389e+01   4.482e-02   1.358e-02   4.236e-05   1.330e+01   2.466e-02
-1.378e+01   5.008e-02   1.517e-02   4.690e-05   1.330e+01   2.454e-02
-1.367e+01   5.596e-02   1.695e-02   5.189e-05   1.330e+01   2.440e-02
-1.356e+01   6.253e-02   1.894e-02   5.736e-05   1.330e+01   2.425e-02
-1.345e+01   6.987e-02   2.116e-02   6.337e-05   1.330e+01   2.408e-02
-1.334e+01   7.807e-02   2.365e-02   6.996e-05   1.330e+01   2.388e-02
-1.323e+01   8.723e-02   2.642e-02   7.720e-05   1.330e+01   2.366e-02
-1.311e+01   9.746e-02   2.953e-02   8.515e-05   1.330e+01   2.341e-02
-1.300e+01   1.089e-01   3.299e-02   9.392e-05   1.330e+01   2.313e-02
-1.289e+01   1.217e-01   3.687e-02   1.036e-04   1.331e+01   2.281e-02
-1.278e+01   1.360e-01   4.119e-02   1.144e-04   1.331e+01   2.246e-02
-1.267e+01   1.519e-01   4.603e-02   1.264e-04   1.331e+01   2.206e-02
-1.256e+01   1.698e-01   5.144e-02   1.399e-04   1.331e+01   2.162e-02
-1.245e+01   1.897e-01   5.748e-02   1.552e-04   1.331e+01   2.112e-02
-1.234e+01   2.120e-01   6.423e-02   1.727e-04   1.331e+01   2.057e-02
-1.223e+01   2.368e-01   7.177e-02   1.930e-04   1.331e+01   1.997e-02
-1.212e+01   2.647e-01   8.021e-02   2.167e-04   1.332e+01   1.931e-02
-1.201e+01   2.957e-01   8.963e-02   2.445e-04   1.332e+01   1.860e-02
-1.189e+01   3.305e-01   1.002e-01   2.772e-04   1.332e+01   1.783e-02
-1.178e+01   3.693e-01   1.119e-01   3.158e-04   1.332e+01   1.703e-02
-1.167e+01   4.126e-01   1.251e-01   3.613e-04   1.333e+01   1.620e-02
-1.156e+01   4.611e-01   1.398e-01   4.145e-04   1.333e+01   1.535e-02
-1.145e+01   5.153e-01   1.563e-01   4.763e-04   1.333e+01   1.453e-02
-1.134e+01   5.758e-01   1.747e-01   5.472e-04   1.334e+01   1.374e-02
-1.123e+01   6.435e-01   1.952e-01   6.273e-04   1.334e+01   1.301e-02
-1.112e+01   7.191e-01   2.182e-01   7.162e-04   1.335e+01   1.238e-02
-1.101e+01   8.036e-01   2.440e-01   8.129e-04   1.335e+01   1.187e-02
-1.090e+01   8.981e-01   2.727e-01   9.156e-04   1.336e+01   1.148e-02
-1.078e+01   1.004e+00   3.049e-01   1.022e-03   1.337e+01   1.122e-02
-1.067e+01   1.122e+00   3.409e-01   1.128e-03   1.337e+01   1.110e-02
-1.056e+01   1.254e+00   3.812e-01   1.233e-03   1.338e+01   1.113e-02
-1.045e+01   1.401e+00   4.262e-01   1.333e-03   1.339e+01   1.131e-02
-1.034e+01   1.566e+00   4.766e-01   1.427e-03   1.340e+01   1.161e-02
-1.023e+01   1.751e+00   5.330e-01   1.514e-03   1.341e+01   1.196e-02
-1.012e+01   1.957e+00   5.961e-01   1.593e-03   1.343e+01   1.224e-02
-1.001e+01   2.188e+00   6.667e-01   1.656e-03   1.344e+01   1.230e-02
-9.897e+00   2.446e+00   7.457e-01   1.690e-03   1.346e+01   1.203e-02
-9.786e+00   2.735e+00   8.342e-01   1.674e-03   1.347e+01   1.137e-02
-9.675e+00   3.058e+00   9.333e-01   1.580e-03   1.350e+01   1.036e-02
-9.564e+00   3.419e+00   1.044e+00   1.385e-03   1.352e+01   9.087e-03
-9.453e+00   3.824e+00   1.169e+00   1.089e-03   1.355e+01   7.775e-03
-9.343e+00   4.277e+00   1.309e+00   7.928e-04   1.358e+01   6.943e-03
-9.232e+00   4.784e+00   1.465e+00   8.304e-04   1.362e+01   7.438e-03
-9.121e+00   5.352e+00   1.641e+00   1.278e-03   1.366e+01   9.199e-03
-9.010e+00   5.988e+00   1.838e+00   1.774e-03   1.371e+01   1.084e-02
-8.899e+00   6.701e+00   2.059e+00   2.119e-03   1.376e+01   1.092e-02
-8.788e+00   7.501e+00   2.308e+00   2.392e-03   1.382e+01   8.941e-03
-8.677e+00   8.398e+00   2.586e+00   2.968e-03   1.389e+01   6.764e-03
-8.566e+00   9.404e+00   2.899e+00   3.909e-03   1.397e+01   8.956e-03
-8.455e+00   1.053e+01   3.251e+00   4.637e-03   1.407e+01   1.302e-02
-8.344e+00   1.180e+01   3.645e+00   4.624e-03   1.418e+01   1.478e-02
-8.233e+00   1.323e+01   4.088e+00   3.935e-03   1.430e+01   1.509e-02
-8.122e+00   1.484e+01   4.586e+00   3.022e-03   1.445e+01   1.734e-02
-8.011e+00   1.665e+01   5.143e+00   3.069e-03   1.463e+01   1.821e-02
-7.900e+00   1.869e+01   5.768e+00   5.170e-03   1.484e+01   1.208e-02
-7.789e+00   2.099e+01   6.463e+00   6.366e-03   1.508e+01   3.062e-03
-7.678e+00   2.359e+01   7.233e+00   4.193e-03   1.535e+01   1.819e-02
-7.567e+00   2.654e+01   8.077e+00   5.760e-03   1.567e+01   3.051e-02
-7.456e+00   2.988e+01   8.994e+00   1.174e-02   1.603e+01   2.891e-02
-7.345e+00   3.368e+01   9.980e+00   1.275e-02   1.645e+01   1.473e-02
-7.234e+00   3.801e+01   1.102e+01   9.464e-03   1.691e+01   2.069e-02
-7.124e+00   4.296e+01   1.210e+01   9.336e-03   1.741e+01   2.682e-02
-7.013e+00   4.864e+01   1.319e+01   7.918e-03   1.794e+01   9.233e-03
-6.902e+00   5.518e+01   1.426e+01   3.139e-03   1.849e+01   2.375e-02
-6.791e+00   6.276e+01   1.530e+01   4.379e-03   1.906e+01   2.824e-02
-6.680e+00   7.160e+01   1.629e+01   4.215e-03   1.964e+01   1.774e-02
-6.569e+00   8.199e+01   1.723e+01   3.154e-03   2.022e+01   1.559e-02
-6.458e+00   9.434e+01   1.811e+01   5.546e-03   2.078e+01   1.784e-02
-6.347e+00   1.092e+02   1.892e+01   7.493e-03   2.131e+01   3.601e-02
-6.236e+00   1.274e+02   1.968e+01   7.469e-03   2.181e+01   4.770e-02
-6.125e+00   1.500e+02   2.038e+01   7.894e-03   2.231e+01   3.864e-02