File: CH4_REF_ISOTHERMS/AIF/ch4_uio66_300K.aif
data_CH4_UiO66_300K
_exptl_date
_exptl_temperature 300
_adsnt_material_id UiO-66
_simltn_adsorbent_filename 'data.UiO66_Snurr_rep222'
_units_temperature K
_units_fugacity BAR
_units_pressure BAR
_units_loading MOL-PER-KiloGM
_units_qst KiloJ-PER-MOL
_exptl_isotherm_type absolute
_exptl_adsorptive_name 'Methane'
_simltn_forcefield_adsorptive 'TraPPE CH4; 12ang linear-force shift'
_simltn_forcefield_adsorbent 'see adsorbent file'

loop_
_adsorp_fugacity
_adsorp_pressure
_adsorp_amount
_adsorp_amount_uncertainty
_adsorp_qst
_adsorp_qst_uncertainty
3.723e-04   3.723e-04   2.970e-04   8.111e-05   1.776e+01   5.980e-03
4.444e-04   4.444e-04   3.545e-04   9.655e-05   1.776e+01   5.974e-03
5.305e-04   5.305e-04   4.230e-04   1.149e-04   1.776e+01   5.967e-03
6.332e-04   6.332e-04   5.048e-04   1.365e-04   1.776e+01   5.958e-03
7.559e-04   7.558e-04   6.023e-04   1.622e-04   1.776e+01   5.948e-03
9.022e-04   9.022e-04   7.186e-04   1.925e-04   1.776e+01   5.935e-03
1.077e-03   1.077e-03   8.574e-04   2.283e-04   1.776e+01   5.920e-03
1.286e-03   1.285e-03   1.023e-03   2.703e-04   1.776e+01   5.902e-03
1.534e-03   1.534e-03   1.220e-03   3.195e-04   1.776e+01   5.879e-03
1.832e-03   1.832e-03   1.455e-03   3.771e-04   1.776e+01   5.851e-03
2.186e-03   2.186e-03   1.735e-03   4.441e-04   1.776e+01   5.817e-03
2.610e-03   2.610e-03   2.069e-03   5.217e-04   1.776e+01   5.773e-03
3.115e-03   3.115e-03   2.467e-03   6.111e-04   1.776e+01   5.718e-03
3.718e-03   3.718e-03   2.941e-03   7.134e-04   1.776e+01   5.647e-03
4.438e-03   4.438e-03   3.505e-03   8.295e-04   1.776e+01   5.555e-03
5.298e-03   5.298e-03   4.177e-03   9.600e-04   1.776e+01   5.435e-03
6.324e-03   6.324e-03   4.977e-03   1.105e-03   1.776e+01   5.278e-03
7.549e-03   7.548e-03   5.929e-03   1.265e-03   1.776e+01   5.072e-03
9.010e-03   9.010e-03   7.063e-03   1.437e-03   1.776e+01   4.805e-03
1.076e-02   1.076e-02   8.415e-03   1.620e-03   1.776e+01   4.464e-03
1.284e-02   1.284e-02   1.003e-02   1.809e-03   1.776e+01   4.043e-03
1.532e-02   1.532e-02   1.195e-02   2.000e-03   1.776e+01   3.553e-03
1.829e-02   1.829e-02   1.424e-02   2.185e-03   1.776e+01   3.048e-03
2.183e-02   2.183e-02   1.699e-02   2.356e-03   1.776e+01   2.676e-03
2.606e-02   2.606e-02   2.028e-02   2.500e-03   1.776e+01   2.682e-03
3.111e-02   3.111e-02   2.422e-02   2.607e-03   1.775e+01   3.203e-03
3.713e-02   3.713e-02   2.895e-02   2.667e-03   1.775e+01   4.082e-03
4.433e-02   4.433e-02   3.462e-02   2.676e-03   1.775e+01   5.057e-03
5.291e-02   5.291e-02   4.139e-02   2.652e-03   1.775e+01   5.881e-03
6.316e-02   6.316e-02   4.945e-02   2.634e-03   1.774e+01   6.312e-03
7.539e-02   7.539e-02   5.900e-02   2.667e-03   1.774e+01   6.135e-03
8.998e-02   8.999e-02   7.024e-02   2.758e-03   1.774e+01   5.252e-03
1.074e-01   1.074e-01   8.339e-02   2.858e-03   1.773e+01   3.883e-03
1.282e-01   1.282e-01   9.875e-02   2.912e-03   1.772e+01   2.823e-03
1.530e-01   1.531e-01   1.167e-01   2.923e-03   1.772e+01   2.980e-03
1.827e-01   1.827e-01   1.376e-01   3.010e-03   1.771e+01   4.010e-03
2.181e-01   2.181e-01   1.622e-01   3.375e-03   1.770e+01   5.160e-03
2.603e-01   2.603e-01   1.909e-01   3.898e-03   1.769e+01   4.805e-03
3.107e-01   3.108e-01   2.242e-01   4.183e-03   1.767e+01   2.893e-03
3.709e-01   3.710e-01   2.621e-01   4.001e-03   1.765e+01   8.110e-03
4.427e-01   4.429e-01   3.050e-01   3.054e-03   1.763e+01   1.468e-02
5.284e-01   5.287e-01   3.534e-01   1.666e-03   1.761e+01   1.653e-02
6.307e-01   6.311e-01   4.079e-01   9.746e-04   1.757e+01   1.225e-02
7.529e-01   7.534e-01   4.691e-01   3.210e-03   1.754e+01   8.264e-03
8.987e-01   8.995e-01   5.370e-01   5.285e-03   1.750e+01   1.379e-02
1.073e+00   1.074e+00   6.116e-01   5.519e-03   1.745e+01   1.868e-02
1.280e+00   1.282e+00   6.929e-01   3.971e-03   1.739e+01   6.083e-03
1.528e+00   1.531e+00   7.802e-01   2.903e-03   1.732e+01   1.357e-02
1.824e+00   1.828e+00   8.731e-01   3.227e-03   1.725e+01   1.007e-02
2.178e+00   2.183e+00   9.725e-01   3.333e-03   1.718e+01   2.008e-02
2.599e+00   2.606e+00   1.079e+00   4.778e-03   1.709e+01   2.157e-02
3.103e+00   3.113e+00   1.194e+00   3.799e-03   1.700e+01   2.308e-02
3.704e+00   3.718e+00   1.316e+00   2.429e-03   1.690e+01   6.600e-03
4.421e+00   4.441e+00   1.445e+00   5.491e-03   1.680e+01   1.684e-02
5.277e+00   5.306e+00   1.581e+00   5.804e-03   1.673e+01   1.428e-02
6.299e+00   6.340e+00   1.724e+00   4.250e-03   1.667e+01   8.566e-03
7.519e+00   7.577e+00   1.878e+00   3.096e-04   1.662e+01   1.887e-02
8.975e+00   9.059e+00   2.042e+00   1.540e-03   1.657e+01   1.818e-02
1.071e+01   1.083e+01   2.212e+00   8.420e-04   1.655e+01   1.894e-02
1.279e+01   1.296e+01   2.393e+00   2.355e-03   1.657e+01   1.359e-02
1.526e+01   1.551e+01   2.586e+00   3.728e-03   1.661e+01   2.300e-02
1.822e+01   1.857e+01   2.789e+00   1.562e-03   1.666e+01   1.597e-02
2.175e+01   2.225e+01   3.004e+00   1.610e-03   1.675e+01   2.579e-02
2.596e+01   2.667e+01   3.229e+00   2.826e-03   1.691e+01   2.004e-02
3.099e+01   3.200e+01   3.469e+00   3.115e-03   1.708e+01   2.879e-02
3.699e+01   3.844e+01   3.723e+00   1.946e-03   1.731e+01   4.119e-02
4.415e+01   4.623e+01   3.991e+00   1.958e-03   1.751e+01   2.995e-02
5.270e+01   5.566e+01   4.273e+00   2.793e-03   1.772e+01   3.468e-02
6.290e+01   6.713e+01   4.571e+00   3.341e-03   1.798e+01   2.565e-02
7.509e+01   8.109e+01   4.883e+00   2.712e-03   1.820e+01   3.692e-02
8.963e+01   9.812e+01   5.205e+00   3.712e-03   1.838e+01   4.189e-02
1.070e+02   1.189e+02   5.534e+00   3.114e-03   1.855e+01   4.108e-02
1.277e+02   1.442e+02   5.869e+00   6.064e-03   1.865e+01   5.314e-02
1.524e+02   1.749e+02   6.204e+00   6.257e-03   1.873e+01   4.281e-02
1.820e+02   2.115e+02   6.534e+00   4.118e-03   1.875e+01   2.649e-02
2.172e+02   2.546e+02   6.858e+00   4.958e-03   1.872e+01   7.935e-02
2.592e+02   3.040e+02   7.169e+00   3.693e-03   1.866e+01   2.600e-02
3.095e+02   3.595e+02   7.465e+00   3.217e-03   1.860e+01   1.223e-01
3.694e+02   4.205e+02   7.740e+00   3.444e-03   1.845e+01   1.066e-01
4.409e+02   4.866e+02   7.995e+00   5.693e-03   1.838e+01   7.725e-02
5.263e+02   5.572e+02   8.230e+00   1.724e-03   1.823e+01   1.101e-01
6.282e+02   6.319e+02   8.443e+00   6.163e-04   1.798e+01   6.267e-02
7.499e+02   7.102e+02   8.637e+00   1.755e-03   1.781e+01   5.458e-02
8.951e+02   7.919e+02   8.818e+00   2.400e-03   1.757e+01   7.909e-02
1.068e+03   8.765e+02   8.989e+00   5.651e-03   1.722e+01   3.706e-02
1.275e+03   9.640e+02   9.163e+00   5.583e-03   1.690e+01   2.896e-02
1.522e+03   1.054e+03   9.353e+00   2.648e-03   1.665e+01   1.588e-02
1.817e+03   1.147e+03   9.581e+00   9.818e-03   1.660e+01   4.102e-02
2.169e+03   1.241e+03   9.870e+00   1.355e-02   1.660e+01   3.610e-02
2.589e+03   1.338e+03   1.022e+01   1.076e-02   1.671e+01   1.855e-02
3.090e+03   1.437e+03   1.063e+01   1.600e-02   1.681e+01   1.112e-02
3.689e+03   1.538e+03   1.107e+01   1.764e-02   1.690e+01   4.084e-02
4.403e+03   1.640e+03   1.150e+01   1.104e-02   1.701e+01   7.078e-02
5.256e+03   1.744e+03   1.190e+01   1.232e-02   1.710e+01   4.853e-02
6.274e+03   1.850e+03   1.224e+01   2.199e-02   1.732e+01   4.644e-02
7.489e+03   1.958e+03   1.248e+01   1.583e-02   1.759e+01   6.254e-02
8.939e+03   2.067e+03   1.265e+01   1.050e-02   1.791e+01   6.066e-02
1.067e+04   2.177e+03   1.277e+01   8.651e-03   1.821e+01   7.106e-02
1.274e+04   2.289e+03   1.286e+01   5.798e-03   1.841e+01   8.034e-02
1.520e+04   2.402e+03   1.292e+01   5.219e-03   1.856e+01   1.065e-01