File: CH4_REF_ISOTHERMS/AIF/ch4_irmof1_350K.aif
data_CH4_IRMOF1_350K
_exptl_date
_exptl_temperature 350
_adsnt_material_id IRMOF-1
_adsnt_filename 'data.IRMOF1_mCBAC_rep111'
_units_temperature K
_units_fugacity BAR
_units_pressure BAR
_units_loading MOL-PER-KiloGM
_units_qst KiloJ-PER-MOL
_exptl_isotherm_type absolute
_exptl_adsorptive_name 'Methane'
_forcefield_adsorptive 'TraPPE CH4; 12ang linear-force shift'
_forcefield_adsnt 'see adsorbent file'

loop_
_adsorp_fugacity
_adsorp_pressure
_adsorp_amount
_adsorp_amount_uncertainty
_adsorp_qst
_adsorp_qst_uncertainty
2.421e-03   2.420e-03   4.594e-04   6.207e-06   9.940e+00   1.012e-02
2.857e-03   2.856e-03   5.420e-04   7.319e-06   9.940e+00   1.012e-02
3.371e-03   3.370e-03   6.396e-04   8.630e-06   9.940e+00   1.011e-02
3.978e-03   3.976e-03   7.546e-04   1.017e-05   9.940e+00   1.010e-02
4.693e-03   4.691e-03   8.904e-04   1.199e-05   9.940e+00   1.009e-02
5.538e-03   5.536e-03   1.051e-03   1.413e-05   9.940e+00   1.007e-02
6.534e-03   6.532e-03   1.240e-03   1.665e-05   9.940e+00   1.006e-02
7.710e-03   7.707e-03   1.463e-03   1.962e-05   9.941e+00   1.004e-02
9.097e-03   9.093e-03   1.726e-03   2.310e-05   9.941e+00   1.002e-02
1.073e-02   1.073e-02   2.036e-03   2.720e-05   9.941e+00   9.988e-03
1.267e-02   1.266e-02   2.403e-03   3.201e-05   9.941e+00   9.957e-03
1.494e-02   1.494e-02   2.835e-03   3.765e-05   9.941e+00   9.920e-03
1.763e-02   1.763e-02   3.345e-03   4.425e-05   9.941e+00   9.877e-03
2.081e-02   2.080e-02   3.947e-03   5.199e-05   9.941e+00   9.826e-03
2.455e-02   2.454e-02   4.657e-03   6.103e-05   9.941e+00   9.766e-03
2.897e-02   2.895e-02   5.495e-03   7.157e-05   9.941e+00   9.695e-03
3.418e-02   3.416e-02   6.484e-03   8.384e-05   9.942e+00   9.612e-03
4.033e-02   4.031e-02   7.651e-03   9.809e-05   9.942e+00   9.515e-03
4.758e-02   4.756e-02   9.028e-03   1.146e-04   9.942e+00   9.401e-03
5.614e-02   5.612e-02   1.065e-02   1.336e-04   9.943e+00   9.267e-03
6.624e-02   6.622e-02   1.257e-02   1.555e-04   9.943e+00   9.111e-03
7.816e-02   7.813e-02   1.483e-02   1.806e-04   9.943e+00   8.929e-03
9.223e-02   9.219e-02   1.750e-02   2.091e-04   9.944e+00   8.716e-03
1.088e-01   1.088e-01   2.065e-02   2.413e-04   9.945e+00   8.469e-03
1.284e-01   1.284e-01   2.436e-02   2.773e-04   9.945e+00   8.183e-03
1.515e-01   1.515e-01   2.875e-02   3.174e-04   9.946e+00   7.852e-03
1.788e-01   1.787e-01   3.392e-02   3.615e-04   9.947e+00   7.472e-03
2.109e-01   2.109e-01   4.003e-02   4.092e-04   9.949e+00   7.037e-03
2.489e-01   2.488e-01   4.723e-02   4.601e-04   9.950e+00   6.544e-03
2.937e-01   2.936e-01   5.573e-02   5.135e-04   9.952e+00   5.990e-03
3.465e-01   3.464e-01   6.575e-02   5.682e-04   9.953e+00   5.376e-03
4.088e-01   4.088e-01   7.758e-02   6.230e-04   9.955e+00   4.710e-03
4.824e-01   4.823e-01   9.154e-02   6.763e-04   9.958e+00   4.012e-03
5.692e-01   5.691e-01   1.080e-01   7.266e-04   9.960e+00   3.328e-03
6.716e-01   6.716e-01   1.274e-01   7.728e-04   9.963e+00   2.756e-03
7.924e-01   7.924e-01   1.503e-01   8.141e-04   9.967e+00   2.468e-03
9.350e-01   9.351e-01   1.772e-01   8.497e-04   9.970e+00   2.628e-03
1.103e+00   1.103e+00   2.090e-01   8.780e-04   9.975e+00   3.188e-03
1.302e+00   1.302e+00   2.464e-01   8.931e-04   9.980e+00   3.968e-03
1.536e+00   1.537e+00   2.904e-01   8.808e-04   9.985e+00   4.813e-03
1.812e+00   1.813e+00   3.422e-01   8.162e-04   9.992e+00   5.618e-03
2.138e+00   2.140e+00   4.031e-01   6.736e-04   1.000e+01   6.275e-03
2.523e+00   2.526e+00   4.746e-01   5.057e-04   1.001e+01   6.656e-03
2.977e+00   2.981e+00   5.587e-01   7.097e-04   1.002e+01   6.637e-03
3.513e+00   3.518e+00   6.576e-01   1.431e-03   1.004e+01   6.234e-03
4.145e+00   4.152e+00   7.737e-01   2.417e-03   1.005e+01   5.730e-03
4.890e+00   4.901e+00   9.101e-01   3.473e-03   1.007e+01   5.274e-03
5.770e+00   5.785e+00   1.070e+00   4.385e-03   1.010e+01   4.200e-03
6.809e+00   6.830e+00   1.257e+00   4.964e-03   1.013e+01   1.960e-03
8.034e+00   8.063e+00   1.475e+00   5.126e-03   1.016e+01   2.659e-03
9.479e+00   9.520e+00   1.729e+00   4.912e-03   1.020e+01   4.961e-03
1.118e+01   1.124e+01   2.023e+00   4.396e-03   1.024e+01   4.884e-03
1.320e+01   1.328e+01   2.364e+00   3.720e-03   1.030e+01   3.020e-03
1.557e+01   1.568e+01   2.760e+00   3.841e-03   1.036e+01   1.919e-03
1.837e+01   1.852e+01   3.215e+00   4.855e-03   1.043e+01   3.982e-03
2.168e+01   2.189e+01   3.735e+00   5.096e-03   1.051e+01   6.617e-03
2.558e+01   2.587e+01   4.322e+00   5.308e-03   1.060e+01   6.744e-03
3.018e+01   3.058e+01   4.980e+00   6.152e-03   1.071e+01   3.210e-03
3.561e+01   3.616e+01   5.713e+00   6.112e-03   1.084e+01   1.043e-02
4.202e+01   4.278e+01   6.518e+00   5.173e-03   1.099e+01   1.070e-02
4.958e+01   5.063e+01   7.392e+00   7.556e-03   1.115e+01   1.494e-03
5.850e+01   5.993e+01   8.327e+00   9.467e-03   1.134e+01   6.071e-03
6.903e+01   7.098e+01   9.311e+00   1.038e-02   1.153e+01   8.795e-03
8.144e+01   8.408e+01   1.033e+01   9.452e-03   1.174e+01   1.070e-02
9.610e+01   9.964e+01   1.137e+01   7.859e-03   1.197e+01   4.473e-03
1.134e+02   1.181e+02   1.242e+01   8.361e-03   1.221e+01   1.338e-02
1.338e+02   1.399e+02   1.346e+01   5.037e-03   1.245e+01   1.202e-02
1.579e+02   1.656e+02   1.447e+01   5.822e-03   1.269e+01   9.773e-03
1.863e+02   1.957e+02   1.546e+01   8.541e-03   1.292e+01   1.876e-02
2.198e+02   2.308e+02   1.641e+01   4.731e-03   1.315e+01   1.020e-02
2.593e+02   2.711e+02   1.731e+01   5.099e-03   1.334e+01   1.802e-02
3.060e+02   3.169e+02   1.817e+01   8.429e-03   1.352e+01   2.759e-02
3.610e+02   3.682e+02   1.899e+01   1.042e-02   1.369e+01   1.596e-02
4.260e+02   4.249e+02   1.977e+01   1.284e-02   1.382e+01   1.085e-02
5.026e+02   4.867e+02   2.050e+01   1.069e-02   1.394e+01   1.967e-02
5.931e+02   5.535e+02   2.120e+01   3.722e-03   1.404e+01   2.850e-02
6.998e+02   6.247e+02   2.186e+01   5.332e-03   1.412e+01   2.223e-02
8.257e+02   7.001e+02   2.249e+01   1.102e-02   1.417e+01   1.307e-02
9.743e+02   7.795e+02   2.309e+01   1.291e-02   1.420e+01   1.380e-02
1.150e+03   8.624e+02   2.365e+01   1.147e-02   1.418e+01   2.451e-02
1.356e+03   9.486e+02   2.419e+01   7.412e-03   1.416e+01   2.718e-02
1.600e+03   1.038e+03   2.471e+01   5.950e-03   1.414e+01   5.859e-02
1.888e+03   1.130e+03   2.521e+01   6.524e-03   1.411e+01   7.083e-02
2.228e+03   1.225e+03   2.569e+01   9.144e-03   1.406e+01   5.091e-02
2.629e+03   1.323e+03   2.615e+01   1.047e-02   1.399e+01   2.844e-02
3.102e+03   1.423e+03   2.659e+01   7.782e-03   1.391e+01   8.182e-02
3.660e+03   1.525e+03   2.703e+01   4.492e-03   1.383e+01   1.135e-01
4.319e+03   1.630e+03   2.745e+01   5.411e-03   1.373e+01   8.431e-02
5.096e+03   1.736e+03   2.786e+01   9.276e-03   1.360e+01   2.752e-02
6.013e+03   1.845e+03   2.826e+01   1.267e-02   1.348e+01   4.423e-02
7.094e+03   1.955e+03   2.865e+01   1.358e-02   1.337e+01   5.784e-02
8.371e+03   2.068e+03   2.904e+01   1.219e-02   1.329e+01   3.983e-02
9.877e+03   2.182e+03   2.942e+01   1.338e-02   1.322e+01   2.250e-02
1.165e+04   2.297e+03   2.979e+01   1.980e-02   1.316e+01   2.790e-02
1.375e+04   2.415e+03   3.015e+01   2.550e-02   1.310e+01   3.020e-02
1.623e+04   2.534e+03   3.051e+01   2.643e-02   1.305e+01   2.348e-02
1.914e+04   2.654e+03   3.087e+01   2.272e-02   1.298e+01   5.442e-02
2.259e+04   2.776e+03   3.122e+01   1.683e-02   1.289e+01   8.467e-02
2.665e+04   2.899e+03   3.157e+01   1.308e-02   1.281e+01   9.584e-02
3.145e+04   3.023e+03   3.191e+01   1.313e-02   1.275e+01   1.064e-01