File: CH4_REF_ISOTHERMS/AIF/ch4_uio66_350K.aif
data_CH4_UiO66_350K
_exptl_date
_exptl_temperature 350
_adsnt_material_id UiO-66
_adsnt_filename 'data.UiO66_Snurr_rep222'
_units_temperature K
_units_fugacity BAR
_units_pressure BAR
_units_loading MOL_PER_KG
_units_qst KiloJ_PER_MOL
_exptl_isotherm_type absolute
_exptl_adsorptive_name 'Nitrogen'
_forcefield_adsorptive 'TraPPE CH4; 12ang linear-force shift'
_forcefield_adsnt 'see adsorbent file'

loop_
_adsorp_fugacity
_adsorp_pressure
_adsorp_amount
_adsorp_amount_uncertainty
_adsorp_qst
_adsorp_qst_uncertainty
2.421e-03   2.420e-03   7.709e-04   2.543e-05   1.781e+01   5.688e-03
2.857e-03   2.856e-03   9.091e-04   2.962e-05   1.781e+01   5.635e-03
3.371e-03   3.370e-03   1.072e-03   3.443e-05   1.781e+01   5.576e-03
3.978e-03   3.976e-03   1.264e-03   3.993e-05   1.781e+01   5.510e-03
4.693e-03   4.691e-03   1.490e-03   4.618e-05   1.781e+01   5.438e-03
5.538e-03   5.536e-03   1.756e-03   5.323e-05   1.781e+01   5.358e-03
6.534e-03   6.532e-03   2.069e-03   6.117e-05   1.781e+01   5.275e-03
7.710e-03   7.707e-03   2.438e-03   7.005e-05   1.781e+01   5.189e-03
9.097e-03   9.093e-03   2.871e-03   7.996e-05   1.781e+01   5.107e-03
1.073e-02   1.073e-02   3.381e-03   9.106e-05   1.781e+01   5.034e-03
1.267e-02   1.266e-02   3.979e-03   1.036e-04   1.781e+01   4.980e-03
1.494e-02   1.494e-02   4.682e-03   1.182e-04   1.781e+01   4.957e-03
1.763e-02   1.763e-02   5.507e-03   1.359e-04   1.781e+01   4.980e-03
2.081e-02   2.080e-02   6.473e-03   1.584e-04   1.781e+01   5.062e-03
2.455e-02   2.454e-02   7.605e-03   1.887e-04   1.781e+01   5.214e-03
2.897e-02   2.895e-02   8.929e-03   2.312e-04   1.780e+01   5.437e-03
3.418e-02   3.416e-02   1.048e-02   2.912e-04   1.780e+01   5.721e-03
4.033e-02   4.031e-02   1.229e-02   3.750e-04   1.780e+01   6.040e-03
4.758e-02   4.756e-02   1.440e-02   4.891e-04   1.780e+01   6.353e-03
5.614e-02   5.612e-02   1.686e-02   6.396e-04   1.780e+01   6.605e-03
6.624e-02   6.622e-02   1.974e-02   8.310e-04   1.780e+01   6.738e-03
7.816e-02   7.813e-02   2.311e-02   1.065e-03   1.779e+01   6.702e-03
9.223e-02   9.219e-02   2.705e-02   1.338e-03   1.779e+01   6.480e-03
1.088e-01   1.088e-01   3.167e-02   1.637e-03   1.779e+01   6.103e-03
1.284e-01   1.284e-01   3.711e-02   1.941e-03   1.779e+01   5.666e-03
1.515e-01   1.515e-01   4.353e-02   2.216e-03   1.778e+01   5.294e-03
1.788e-01   1.787e-01   5.111e-02   2.417e-03   1.778e+01   5.077e-03
2.109e-01   2.109e-01   6.007e-02   2.504e-03   1.778e+01   5.015e-03
2.489e-01   2.488e-01   7.061e-02   2.457e-03   1.777e+01   5.046e-03
2.937e-01   2.936e-01   8.297e-02   2.320e-03   1.776e+01   5.076e-03
3.465e-01   3.464e-01   9.737e-02   2.217e-03   1.776e+01   4.935e-03
4.088e-01   4.088e-01   1.141e-01   2.270e-03   1.775e+01   4.315e-03
4.824e-01   4.823e-01   1.335e-01   2.412e-03   1.773e+01   2.901e-03
5.692e-01   5.691e-01   1.560e-01   2.464e-03   1.772e+01   1.057e-03
6.716e-01   6.716e-01   1.819e-01   2.453e-03   1.770e+01   2.860e-03
7.924e-01   7.924e-01   2.115e-01   2.615e-03   1.768e+01   5.823e-03
9.350e-01   9.351e-01   2.448e-01   2.848e-03   1.766e+01   7.867e-03
1.103e+00   1.103e+00   2.823e-01   2.604e-03   1.764e+01   7.664e-03
1.302e+00   1.302e+00   3.246e-01   1.913e-03   1.761e+01   5.392e-03
1.536e+00   1.537e+00   3.725e-01   1.410e-03   1.757e+01   1.087e-03
1.812e+00   1.813e+00   4.263e-01   8.400e-04   1.753e+01   6.321e-03
2.138e+00   2.140e+00   4.861e-01   1.045e-03   1.748e+01   1.036e-02
2.523e+00   2.526e+00   5.518e-01   1.287e-03   1.742e+01   1.193e-02
2.977e+00   2.981e+00   6.229e-01   2.684e-03   1.736e+01   1.450e-02
3.513e+00   3.518e+00   6.996e-01   4.733e-03   1.729e+01   1.394e-02
4.145e+00   4.152e+00   7.829e-01   5.988e-03   1.722e+01   5.511e-03
4.890e+00   4.901e+00   8.728e-01   5.053e-03   1.714e+01   2.480e-02
5.770e+00   5.785e+00   9.689e-01   2.846e-03   1.706e+01   1.637e-02
6.809e+00   6.830e+00   1.072e+00   2.242e-03   1.696e+01   1.078e-02
8.034e+00   8.063e+00   1.182e+00   2.923e-03   1.686e+01   1.469e-02
9.479e+00   9.520e+00   1.300e+00   3.186e-03   1.676e+01   1.187e-02
1.118e+01   1.124e+01   1.423e+00   3.825e-03   1.668e+01   2.437e-02
1.320e+01   1.328e+01   1.552e+00   4.091e-03   1.659e+01   1.591e-02
1.557e+01   1.568e+01   1.687e+00   2.826e-03   1.652e+01   2.146e-02
1.837e+01   1.852e+01   1.830e+00   2.408e-03   1.646e+01   2.206e-02
2.168e+01   2.189e+01   1.981e+00   2.278e-03   1.643e+01   9.844e-03
2.558e+01   2.587e+01   2.140e+00   3.075e-03   1.640e+01   1.021e-02
3.018e+01   3.058e+01   2.305e+00   3.979e-03   1.639e+01   1.954e-02
3.561e+01   3.616e+01   2.479e+00   3.447e-03   1.638e+01   2.652e-02
4.202e+01   4.278e+01   2.660e+00   1.447e-03   1.639e+01   2.282e-02
4.958e+01   5.063e+01   2.849e+00   1.373e-03   1.644e+01   2.122e-02
5.850e+01   5.993e+01   3.048e+00   1.695e-03   1.651e+01   1.411e-02
6.903e+01   7.098e+01   3.253e+00   2.858e-03   1.660e+01   1.882e-02
8.144e+01   8.408e+01   3.467e+00   1.584e-03   1.669e+01   3.297e-02
9.610e+01   9.964e+01   3.691e+00   1.384e-03   1.683e+01   9.968e-03
1.134e+02   1.181e+02   3.923e+00   1.848e-03   1.700e+01   1.904e-02
1.338e+02   1.399e+02   4.165e+00   9.049e-04   1.717e+01   2.713e-02
1.579e+02   1.656e+02   4.419e+00   1.848e-03   1.738e+01   3.833e-02
1.863e+02   1.957e+02   4.684e+00   2.321e-03   1.758e+01   4.289e-02
2.198e+02   2.308e+02   4.957e+00   2.759e-03   1.779e+01   2.314e-02
2.593e+02   2.711e+02   5.240e+00   5.402e-03   1.801e+01   2.411e-02
3.060e+02   3.169e+02   5.531e+00   5.710e-03   1.819e+01   4.899e-02
3.610e+02   3.682e+02   5.828e+00   4.330e-03   1.838e+01   6.236e-02
4.260e+02   4.249e+02   6.130e+00   4.195e-03   1.852e+01   6.716e-02
5.026e+02   4.867e+02   6.432e+00   4.099e-03   1.865e+01   3.953e-02
5.931e+02   5.535e+02   6.732e+00   1.405e-03   1.871e+01   5.538e-02
6.998e+02   6.247e+02   7.028e+00   2.258e-03   1.876e+01   6.376e-02
8.257e+02   7.001e+02   7.316e+00   3.374e-03   1.877e+01   4.411e-02
9.743e+02   7.795e+02   7.589e+00   3.156e-03   1.872e+01   5.189e-02
1.150e+03   8.624e+02   7.847e+00   9.802e-04   1.869e+01   3.835e-02
1.356e+03   9.486e+02   8.088e+00   3.913e-03   1.854e+01   6.259e-02
1.600e+03   1.038e+03   8.311e+00   2.267e-03   1.842e+01   2.058e-02
1.888e+03   1.130e+03   8.518e+00   1.192e-03   1.816e+01   8.851e-02
2.228e+03   1.225e+03   8.708e+00   4.212e-03   1.784e+01   2.895e-02
2.629e+03   1.323e+03   8.891e+00   3.865e-03   1.756e+01   4.543e-02
3.102e+03   1.423e+03   9.073e+00   2.833e-03   1.714e+01   1.499e-02
3.660e+03   1.525e+03   9.262e+00   3.465e-03   1.677e+01   6.721e-02
4.319e+03   1.630e+03   9.470e+00   3.610e-03   1.660e+01   3.856e-02
5.096e+03   1.736e+03   9.716e+00   6.613e-03   1.651e+01   5.526e-02
6.013e+03   1.845e+03   1.001e+01   8.685e-03   1.653e+01   2.956e-02
7.094e+03   1.955e+03   1.034e+01   4.894e-03   1.662e+01   4.390e-02
8.371e+03   2.068e+03   1.072e+01   1.345e-02   1.677e+01   4.019e-02
9.877e+03   2.182e+03   1.112e+01   5.547e-03   1.690e+01   2.665e-02
1.165e+04   2.297e+03   1.150e+01   6.219e-03   1.704e+01   2.124e-02
1.375e+04   2.415e+03   1.186e+01   1.174e-02   1.720e+01   6.144e-02
1.623e+04   2.534e+03   1.216e+01   1.186e-02   1.743e+01   5.762e-02
1.914e+04   2.654e+03   1.240e+01   1.633e-02   1.772e+01   6.796e-02
2.259e+04   2.776e+03   1.257e+01   8.971e-03   1.809e+01   8.479e-02
2.665e+04   2.899e+03   1.269e+01   3.131e-03   1.838e+01   1.238e-01
3.145e+04   3.023e+03   1.279e+01   3.358e-03   1.861e+01   8.863e-02