File: CH4_REF_ISOTHERMS/AIF/ch4_zif8_350K.aif
data_CH4_ZIF8_350K
_exptl_date
_exptl_temperature 350
_adsnt_material_id ZIF-8
_simltn_adsorbent_filename 'data.ZIF8_Snurr_rep222'
_units_temperature K
_units_fugacity BAR
_units_pressure BAR
_units_loading MOL-PER-KiloGM
_units_qst KiloJ-PER-MOL
_exptl_isotherm_type absolute
_exptl_adsorptive_name 'Methane'
_simltn_forcefield_adsorptive 'TraPPE CH4; 12ang linear-force shift'
_simltn_forcefield_adsorbent 'see adsorbent file'

loop_
_adsorp_fugacity
_adsorp_pressure
_adsorp_amount
_adsorp_amount_uncertainty
_adsorp_qst
_adsorp_qst_uncertainty
2.421e-03   2.420e-03   3.867e-04   1.531e-05   1.292e+01   8.292e-03
2.857e-03   2.856e-03   4.562e-04   1.802e-05   1.292e+01   8.283e-03
3.371e-03   3.370e-03   5.383e-04   2.120e-05   1.292e+01   8.272e-03
3.978e-03   3.976e-03   6.351e-04   2.493e-05   1.292e+01   8.260e-03
4.693e-03   4.691e-03   7.494e-04   2.930e-05   1.292e+01   8.244e-03
5.538e-03   5.536e-03   8.841e-04   3.441e-05   1.292e+01   8.227e-03
6.534e-03   6.532e-03   1.043e-03   4.037e-05   1.292e+01   8.205e-03
7.710e-03   7.707e-03   1.231e-03   4.732e-05   1.292e+01   8.180e-03
9.097e-03   9.093e-03   1.452e-03   5.541e-05   1.292e+01   8.150e-03
1.073e-02   1.073e-02   1.713e-03   6.478e-05   1.292e+01   8.114e-03
1.267e-02   1.266e-02   2.021e-03   7.561e-05   1.292e+01   8.072e-03
1.494e-02   1.494e-02   2.384e-03   8.808e-05   1.292e+01   8.021e-03
1.763e-02   1.763e-02   2.812e-03   1.024e-04   1.292e+01   7.960e-03
2.081e-02   2.080e-02   3.318e-03   1.187e-04   1.292e+01   7.888e-03
2.455e-02   2.454e-02   3.913e-03   1.371e-04   1.292e+01   7.801e-03
2.897e-02   2.895e-02   4.616e-03   1.578e-04   1.292e+01   7.697e-03
3.418e-02   3.416e-02   5.444e-03   1.807e-04   1.292e+01   7.571e-03
4.033e-02   4.031e-02   6.421e-03   2.059e-04   1.292e+01   7.421e-03
4.758e-02   4.756e-02   7.572e-03   2.332e-04   1.292e+01   7.240e-03
5.614e-02   5.612e-02   8.930e-03   2.620e-04   1.292e+01   7.022e-03
6.624e-02   6.622e-02   1.053e-02   2.918e-04   1.292e+01   6.761e-03
7.816e-02   7.813e-02   1.241e-02   3.215e-04   1.292e+01   6.447e-03
9.223e-02   9.219e-02   1.463e-02   3.498e-04   1.292e+01   6.072e-03
1.088e-01   1.088e-01   1.725e-02   3.749e-04   1.293e+01   5.626e-03
1.284e-01   1.284e-01   2.033e-02   3.946e-04   1.293e+01   5.100e-03
1.515e-01   1.515e-01   2.396e-02   4.067e-04   1.293e+01   4.485e-03
1.788e-01   1.787e-01   2.824e-02   4.087e-04   1.293e+01   3.777e-03
2.109e-01   2.109e-01   3.327e-02   3.991e-04   1.293e+01   2.974e-03
2.489e-01   2.488e-01   3.920e-02   3.772e-04   1.293e+01   2.084e-03
2.937e-01   2.936e-01   4.618e-02   3.445e-04   1.294e+01   1.121e-03
3.465e-01   3.464e-01   5.441e-02   3.050e-04   1.294e+01   1.111e-04
4.088e-01   4.088e-01   6.409e-02   2.662e-04   1.295e+01   9.110e-04
4.824e-01   4.823e-01   7.550e-02   2.378e-04   1.295e+01   1.904e-03
5.692e-01   5.691e-01   8.895e-02   2.305e-04   1.296e+01   2.823e-03
6.716e-01   6.716e-01   1.048e-01   2.516e-04   1.296e+01   3.622e-03
7.924e-01   7.924e-01   1.234e-01   3.007e-04   1.297e+01   4.246e-03
9.350e-01   9.351e-01   1.453e-01   3.664e-04   1.299e+01   4.627e-03
1.103e+00   1.103e+00   1.711e-01   4.268e-04   1.300e+01   4.675e-03
1.302e+00   1.302e+00   2.013e-01   4.555e-04   1.301e+01   4.313e-03
1.536e+00   1.537e+00   2.368e-01   4.265e-04   1.303e+01   3.544e-03
1.812e+00   1.813e+00   2.782e-01   3.048e-04   1.305e+01   2.522e-03
2.138e+00   2.140e+00   3.267e-01   2.067e-05   1.307e+01   1.453e-03
2.523e+00   2.526e+00   3.830e-01   5.367e-04   1.310e+01   2.378e-04
2.977e+00   2.981e+00   4.485e-01   1.440e-03   1.313e+01   1.745e-03
3.513e+00   3.518e+00   5.247e-01   2.546e-03   1.316e+01   4.866e-03
4.145e+00   4.152e+00   6.134e-01   3.329e-03   1.321e+01   7.866e-03
4.890e+00   4.901e+00   7.166e-01   3.009e-03   1.326e+01   8.385e-03
5.770e+00   5.785e+00   8.354e-01   1.318e-03   1.331e+01   5.215e-03
6.809e+00   6.830e+00   9.707e-01   5.231e-04   1.337e+01   1.417e-03
8.034e+00   8.063e+00   1.124e+00   6.070e-04   1.343e+01   8.743e-03
9.479e+00   9.520e+00   1.298e+00   8.892e-04   1.352e+01   9.095e-03
1.118e+01   1.124e+01   1.494e+00   1.567e-03   1.362e+01   1.413e-03
1.320e+01   1.328e+01   1.714e+00   1.196e-03   1.372e+01   4.282e-03
1.557e+01   1.568e+01   1.957e+00   1.183e-03   1.383e+01   6.372e-03
1.837e+01   1.852e+01   2.220e+00   5.784e-04   1.396e+01   2.340e-03
2.168e+01   2.189e+01   2.502e+00   9.747e-04   1.409e+01   2.143e-03
2.558e+01   2.587e+01   2.801e+00   1.278e-03   1.423e+01   1.742e-03
3.018e+01   3.058e+01   3.116e+00   1.088e-03   1.438e+01   2.339e-03
3.561e+01   3.616e+01   3.441e+00   1.230e-03   1.454e+01   2.833e-03
4.202e+01   4.278e+01   3.774e+00   4.557e-04   1.471e+01   2.292e-03
4.958e+01   5.063e+01   4.111e+00   2.460e-03   1.487e+01   1.991e-02
5.850e+01   5.993e+01   4.449e+00   6.063e-03   1.503e+01   1.477e-02
6.903e+01   7.098e+01   4.786e+00   6.003e-03   1.519e+01   3.892e-03
8.144e+01   8.408e+01   5.121e+00   4.945e-03   1.536e+01   4.663e-03
9.610e+01   9.964e+01   5.453e+00   3.889e-03   1.550e+01   1.326e-02
1.134e+02   1.181e+02   5.778e+00   2.447e-03   1.563e+01   1.634e-03
1.338e+02   1.399e+02   6.096e+00   3.311e-03   1.576e+01   1.235e-02
1.579e+02   1.656e+02   6.408e+00   4.189e-03   1.589e+01   4.442e-03
1.863e+02   1.957e+02   6.714e+00   3.718e-03   1.601e+01   1.657e-03
2.198e+02   2.308e+02   7.015e+00   2.698e-03   1.611e+01   5.586e-03
2.593e+02   2.711e+02   7.310e+00   1.145e-03   1.621e+01   8.875e-03
3.060e+02   3.169e+02   7.600e+00   1.843e-03   1.630e+01   2.607e-03
3.610e+02   3.682e+02   7.887e+00   2.902e-03   1.637e+01   1.037e-02
4.260e+02   4.249e+02   8.168e+00   1.865e-03   1.645e+01   4.512e-03
5.026e+02   4.867e+02   8.442e+00   8.369e-04   1.652e+01   2.944e-03
5.931e+02   5.535e+02   8.710e+00   3.011e-03   1.656e+01   2.057e-02
6.998e+02   6.247e+02   8.971e+00   7.580e-03   1.659e+01   1.485e-02
8.257e+02   7.001e+02   9.223e+00   1.006e-02   1.663e+01   8.082e-03
9.743e+02   7.795e+02   9.469e+00   8.425e-03   1.666e+01   1.097e-03
1.150e+03   8.624e+02   9.707e+00   6.116e-03   1.671e+01   9.941e-03
1.356e+03   9.486e+02   9.939e+00   4.387e-03   1.674e+01   4.190e-02
1.600e+03   1.038e+03   1.016e+01   4.233e-03   1.670e+01   2.100e-02
1.888e+03   1.130e+03   1.037e+01   6.175e-03   1.660e+01   2.080e-03
2.228e+03   1.225e+03   1.057e+01   6.272e-03   1.652e+01   7.859e-03
2.629e+03   1.323e+03   1.076e+01   2.964e-03   1.644e+01   3.222e-02
3.102e+03   1.423e+03   1.095e+01   6.306e-05   1.633e+01   3.092e-02
3.660e+03   1.525e+03   1.112e+01   4.635e-04   1.617e+01   1.828e-02
4.319e+03   1.630e+03   1.128e+01   1.032e-03   1.598e+01   9.500e-02
5.096e+03   1.736e+03   1.144e+01   3.896e-03   1.575e+01   1.411e-01
6.013e+03   1.845e+03   1.159e+01   7.260e-03   1.557e+01   8.788e-02
7.094e+03   1.955e+03   1.173e+01   8.579e-03   1.538e+01   4.478e-02
8.371e+03   2.068e+03   1.187e+01   6.762e-03   1.512e+01   1.515e-01
9.877e+03   2.182e+03   1.201e+01   4.215e-03   1.483e+01   1.507e-01
1.165e+04   2.297e+03   1.214e+01   2.849e-03   1.455e+01   6.574e-02
1.375e+04   2.415e+03   1.226e+01   2.762e-03   1.428e+01   2.357e-02
1.623e+04   2.534e+03   1.239e+01   4.023e-03   1.400e+01   6.815e-02
1.914e+04   2.654e+03   1.251e+01   5.744e-03   1.375e+01   6.947e-02
2.259e+04   2.776e+03   1.263e+01   5.957e-03   1.356e+01   4.898e-02
2.665e+04   2.899e+03   1.275e+01   4.049e-03   1.337e+01   5.918e-03
3.145e+04   3.023e+03   1.287e+01   1.478e-03   1.314e+01   6.389e-02