File: CH4_REF_ISOTHERMS/AIF/ch4_zif8_300K.aif
data_CH4_ZIF8_300K
_exptl_date
_exptl_temperature 300
_adsnt_material_id ZIF-8
_adsnt_filename 'data.ZIF8_Snurr_rep222'
_units_temperature K
_units_fugacity BAR
_units_pressure BAR
_units_loading MOL-PER-KiloGM
_units_qst KiloJ-PER-MOL
_exptl_isotherm_type absolute
_exptl_adsorptive_name 'Methane'
_forcefield_adsorptive 'TraPPE CH4; 12ang linear-force shift'
_forcefield_adsnt 'see adsorbent file'

loop_
_adsorp_fugacity
_adsorp_pressure
_adsorp_amount
_adsorp_amount_uncertainty
_adsorp_qst
_adsorp_qst_uncertainty
3.723e-04   3.723e-04   1.177e-04   9.649e-06   1.283e+01   5.738e-03
4.444e-04   4.444e-04   1.405e-04   1.151e-05   1.283e+01   5.734e-03
5.305e-04   5.305e-04   1.677e-04   1.374e-05   1.283e+01   5.731e-03
6.332e-04   6.332e-04   2.001e-04   1.639e-05   1.283e+01   5.726e-03
7.559e-04   7.558e-04   2.389e-04   1.955e-05   1.283e+01   5.721e-03
9.022e-04   9.022e-04   2.852e-04   2.332e-05   1.283e+01   5.714e-03
1.077e-03   1.077e-03   3.404e-04   2.781e-05   1.283e+01   5.707e-03
1.286e-03   1.285e-03   4.063e-04   3.316e-05   1.283e+01   5.698e-03
1.534e-03   1.534e-03   4.850e-04   3.953e-05   1.283e+01   5.687e-03
1.832e-03   1.832e-03   5.789e-04   4.712e-05   1.283e+01   5.674e-03
2.186e-03   2.186e-03   6.911e-04   5.614e-05   1.283e+01   5.659e-03
2.610e-03   2.610e-03   8.249e-04   6.687e-05   1.283e+01   5.641e-03
3.115e-03   3.115e-03   9.847e-04   7.962e-05   1.283e+01   5.619e-03
3.718e-03   3.718e-03   1.175e-03   9.476e-05   1.283e+01   5.594e-03
4.438e-03   4.438e-03   1.403e-03   1.127e-04   1.283e+01   5.564e-03
5.298e-03   5.298e-03   1.675e-03   1.340e-04   1.284e+01   5.529e-03
6.324e-03   6.324e-03   1.999e-03   1.592e-04   1.284e+01   5.487e-03
7.549e-03   7.548e-03   2.387e-03   1.889e-04   1.284e+01   5.438e-03
9.010e-03   9.010e-03   2.849e-03   2.240e-04   1.284e+01   5.381e-03
1.076e-02   1.076e-02   3.401e-03   2.653e-04   1.284e+01   5.315e-03
1.284e-02   1.284e-02   4.060e-03   3.138e-04   1.284e+01   5.237e-03
1.532e-02   1.532e-02   4.847e-03   3.707e-04   1.284e+01   5.148e-03
1.829e-02   1.829e-02   5.787e-03   4.373e-04   1.284e+01   5.045e-03
2.183e-02   2.183e-02   6.910e-03   5.150e-04   1.284e+01   4.928e-03
2.606e-02   2.606e-02   8.250e-03   6.056e-04   1.284e+01   4.795e-03
3.111e-02   3.111e-02   9.851e-03   7.109e-04   1.284e+01   4.646e-03
3.713e-02   3.713e-02   1.176e-02   8.335e-04   1.284e+01   4.480e-03
4.433e-02   4.433e-02   1.405e-02   9.759e-04   1.284e+01   4.297e-03
5.291e-02   5.291e-02   1.678e-02   1.142e-03   1.284e+01   4.098e-03
6.316e-02   6.316e-02   2.005e-02   1.335e-03   1.284e+01   3.882e-03
7.539e-02   7.539e-02   2.395e-02   1.559e-03   1.284e+01   3.652e-03
8.998e-02   8.999e-02   2.863e-02   1.820e-03   1.285e+01   3.411e-03
1.074e-01   1.074e-01   3.423e-02   2.120e-03   1.285e+01   3.169e-03
1.282e-01   1.282e-01   4.094e-02   2.458e-03   1.285e+01   2.955e-03
1.530e-01   1.531e-01   4.898e-02   2.828e-03   1.286e+01   2.832e-03
1.827e-01   1.827e-01   5.862e-02   3.210e-03   1.286e+01   2.911e-03
2.181e-01   2.181e-01   7.018e-02   3.573e-03   1.287e+01   3.303e-03
2.603e-01   2.603e-01   8.405e-02   3.866e-03   1.287e+01   3.998e-03
3.107e-01   3.108e-01   1.006e-01   4.034e-03   1.288e+01   4.800e-03
3.709e-01   3.710e-01   1.205e-01   4.023e-03   1.289e+01   5.338e-03
4.427e-01   4.429e-01   1.441e-01   3.817e-03   1.290e+01   5.120e-03
5.284e-01   5.287e-01   1.721e-01   3.446e-03   1.291e+01   3.720e-03
6.307e-01   6.311e-01   2.051e-01   2.972e-03   1.292e+01   1.816e-03
7.529e-01   7.534e-01   2.442e-01   2.435e-03   1.294e+01   4.203e-03
8.987e-01   8.995e-01   2.903e-01   1.992e-03   1.296e+01   7.667e-03
1.073e+00   1.074e+00   3.450e-01   2.188e-03   1.299e+01   9.102e-03
1.280e+00   1.282e+00   4.096e-01   2.896e-03   1.302e+01   7.107e-03
1.528e+00   1.531e+00   4.859e-01   3.152e-03   1.305e+01   2.530e-03
1.824e+00   1.828e+00   5.756e-01   2.639e-03   1.309e+01   5.377e-03
2.178e+00   2.183e+00   6.810e-01   1.920e-03   1.314e+01   9.140e-03
2.599e+00   2.606e+00   8.047e-01   1.597e-03   1.319e+01   8.171e-03
3.103e+00   3.113e+00   9.494e-01   3.759e-03   1.326e+01   5.025e-03
3.704e+00   3.718e+00   1.118e+00   5.263e-03   1.333e+01   9.057e-03
4.421e+00   4.441e+00   1.311e+00   4.260e-03   1.342e+01   1.265e-02
5.277e+00   5.306e+00   1.530e+00   3.473e-03   1.351e+01   6.624e-03
6.299e+00   6.340e+00   1.777e+00   5.330e-03   1.362e+01   1.110e-02
7.519e+00   7.577e+00   2.052e+00   5.454e-03   1.376e+01   1.490e-02
8.975e+00   9.059e+00   2.354e+00   5.475e-03   1.390e+01   8.863e-03
1.071e+01   1.083e+01   2.681e+00   4.035e-03   1.405e+01   1.523e-02
1.279e+01   1.296e+01   3.032e+00   2.806e-03   1.422e+01   8.974e-03
1.526e+01   1.551e+01   3.402e+00   4.161e-03   1.440e+01   3.585e-03
1.822e+01   1.857e+01   3.780e+00   5.063e-03   1.459e+01   7.448e-03
2.175e+01   2.225e+01   4.164e+00   3.420e-03   1.478e+01   1.004e-02
2.596e+01   2.667e+01   4.549e+00   2.644e-03   1.497e+01   1.377e-02
3.099e+01   3.200e+01   4.930e+00   4.360e-04   1.515e+01   3.231e-03
3.699e+01   3.844e+01   5.305e+00   5.610e-03   1.535e+01   1.416e-02
4.415e+01   4.623e+01   5.675e+00   9.991e-03   1.554e+01   1.006e-02
5.270e+01   5.566e+01   6.036e+00   7.500e-03   1.571e+01   2.252e-02
6.290e+01   6.713e+01   6.387e+00   4.459e-03   1.587e+01   1.602e-02
7.509e+01   8.109e+01   6.729e+00   2.625e-03   1.602e+01   2.452e-02
8.963e+01   9.812e+01   7.064e+00   1.015e-03   1.617e+01   1.710e-02
1.070e+02   1.189e+02   7.392e+00   1.468e-03   1.630e+01   2.261e-02
1.277e+02   1.442e+02   7.713e+00   3.650e-03   1.643e+01   1.059e-02
1.524e+02   1.749e+02   8.026e+00   3.848e-03   1.653e+01   5.030e-02
1.820e+02   2.115e+02   8.330e+00   5.834e-03   1.663e+01   1.551e-02
2.172e+02   2.546e+02   8.627e+00   6.721e-03   1.669e+01   7.297e-02
2.592e+02   3.040e+02   8.915e+00   4.675e-03   1.676e+01   6.619e-02
3.095e+02   3.595e+02   9.194e+00   6.098e-03   1.685e+01   5.054e-02
3.694e+02   4.205e+02   9.462e+00   7.599e-03   1.692e+01   4.880e-02
4.409e+02   4.866e+02   9.718e+00   6.165e-03   1.693e+01   5.736e-02
5.263e+02   5.572e+02   9.964e+00   6.324e-03   1.691e+01   4.351e-02
6.282e+02   6.319e+02   1.020e+01   4.292e-03   1.690e+01   4.756e-02
7.499e+02   7.102e+02   1.042e+01   3.517e-03   1.688e+01   4.288e-02
8.951e+02   7.919e+02   1.063e+01   4.124e-03   1.680e+01   4.749e-02
1.068e+03   8.765e+02   1.082e+01   3.834e-03   1.670e+01   2.810e-02
1.275e+03   9.640e+02   1.100e+01   6.094e-03   1.660e+01   9.722e-02
1.522e+03   1.054e+03   1.118e+01   8.281e-03   1.648e+01   6.860e-02
1.817e+03   1.147e+03   1.134e+01   7.711e-03   1.630e+01   8.906e-02
2.169e+03   1.241e+03   1.149e+01   4.848e-03   1.607e+01   1.153e-01
2.589e+03   1.338e+03   1.164e+01   3.015e-03   1.583e+01   7.701e-02
3.090e+03   1.437e+03   1.178e+01   4.080e-03   1.558e+01   7.861e-02
3.689e+03   1.538e+03   1.191e+01   5.013e-03   1.533e+01   7.241e-02
4.403e+03   1.640e+03   1.205e+01   5.539e-03   1.506e+01   1.178e-01
5.256e+03   1.744e+03   1.217e+01   7.806e-03   1.477e+01   1.263e-01
6.274e+03   1.850e+03   1.230e+01   1.067e-02   1.449e+01   9.380e-02
7.489e+03   1.958e+03   1.242e+01   1.266e-02   1.422e+01   9.880e-02
8.939e+03   2.067e+03   1.254e+01   1.394e-02   1.396e+01   9.326e-02
1.067e+04   2.177e+03   1.266e+01   1.315e-02   1.373e+01   1.069e-01
1.274e+04   2.289e+03   1.278e+01   9.429e-03   1.352e+01   1.624e-01
1.520e+04   2.402e+03   1.289e+01   6.170e-03   1.330e+01   1.321e-01