File: CH4_REF_ISOTHERMS/AIF/ch4_cubtc_300K.aif
data_CH4_CuBTC_300K
_exptl_date
_exptl_temperature 300
_adsnt_material_id CuBTC
_simltn_adsorbent_filename 'data.CuBTC_CaleroIV_rep111'
_units_temperature K
_units_fugacity BAR
_units_pressure BAR
_units_loading MOL-PER-KiloGM
_units_qst KiloJ-PER-MOL
_exptl_isotherm_type absolute
_exptl_adsorptive_name 'Methane'
_simltn_forcefield_adsorptive 'TraPPE CH4; 12ang linear-force shift'
_simltn_forcefield_adsorbent 'see adsorbent file'

loop_
_adsorp_fugacity
_adsorp_pressure
_adsorp_amount
_adsorp_amount_uncertainty
_adsorp_qst
_adsorp_qst_uncertainty
3.723e-04   3.723e-04   3.779e-04   1.130e-05   1.904e+01   5.062e-02
4.444e-04   4.444e-04   4.510e-04   1.348e-05   1.904e+01   5.059e-02
5.305e-04   5.305e-04   5.383e-04   1.608e-05   1.903e+01   5.057e-02
6.332e-04   6.332e-04   6.426e-04   1.916e-05   1.903e+01   5.053e-02
7.559e-04   7.558e-04   7.670e-04   2.284e-05   1.903e+01   5.049e-02
9.022e-04   9.022e-04   9.155e-04   2.722e-05   1.903e+01   5.045e-02
1.077e-03   1.077e-03   1.093e-03   3.242e-05   1.903e+01   5.039e-02
1.286e-03   1.285e-03   1.304e-03   3.860e-05   1.903e+01   5.032e-02
1.534e-03   1.534e-03   1.557e-03   4.594e-05   1.903e+01   5.024e-02
1.832e-03   1.832e-03   1.858e-03   5.464e-05   1.903e+01   5.015e-02
2.186e-03   2.186e-03   2.217e-03   6.494e-05   1.903e+01   5.004e-02
2.610e-03   2.610e-03   2.646e-03   7.712e-05   1.903e+01   4.991e-02
3.115e-03   3.115e-03   3.158e-03   9.151e-05   1.903e+01   4.975e-02
3.718e-03   3.718e-03   3.769e-03   1.085e-04   1.902e+01   4.956e-02
4.438e-03   4.438e-03   4.498e-03   1.284e-04   1.902e+01   4.934e-02
5.298e-03   5.298e-03   5.367e-03   1.517e-04   1.902e+01   4.908e-02
6.324e-03   6.324e-03   6.404e-03   1.789e-04   1.902e+01   4.877e-02
7.549e-03   7.548e-03   7.640e-03   2.106e-04   1.901e+01   4.841e-02
9.010e-03   9.010e-03   9.115e-03   2.472e-04   1.901e+01   4.799e-02
1.076e-02   1.076e-02   1.087e-02   2.894e-04   1.900e+01   4.750e-02
1.284e-02   1.284e-02   1.297e-02   3.377e-04   1.899e+01   4.694e-02
1.532e-02   1.532e-02   1.546e-02   3.925e-04   1.899e+01   4.629e-02
1.829e-02   1.829e-02   1.844e-02   4.542e-04   1.898e+01   4.556e-02
2.183e-02   2.183e-02   2.198e-02   5.231e-04   1.896e+01   4.474e-02
2.606e-02   2.606e-02   2.619e-02   5.992e-04   1.895e+01   4.384e-02
3.111e-02   3.111e-02   3.119e-02   6.825e-04   1.893e+01   4.288e-02
3.713e-02   3.713e-02   3.714e-02   7.727e-04   1.891e+01   4.189e-02
4.433e-02   4.433e-02   4.420e-02   8.694e-04   1.889e+01   4.093e-02
5.291e-02   5.291e-02   5.256e-02   9.723e-04   1.886e+01   4.005e-02
6.316e-02   6.316e-02   6.245e-02   1.081e-03   1.882e+01   3.934e-02
7.539e-02   7.539e-02   7.414e-02   1.195e-03   1.878e+01   3.887e-02
8.998e-02   8.999e-02   8.790e-02   1.316e-03   1.872e+01   3.865e-02
1.074e-01   1.074e-01   1.041e-01   1.444e-03   1.866e+01   3.861e-02
1.282e-01   1.282e-01   1.230e-01   1.583e-03   1.859e+01   3.851e-02
1.530e-01   1.531e-01   1.451e-01   1.743e-03   1.850e+01   3.797e-02
1.827e-01   1.827e-01   1.708e-01   1.941e-03   1.840e+01   3.646e-02
2.181e-01   2.181e-01   2.006e-01   2.203e-03   1.828e+01   3.336e-02
2.603e-01   2.603e-01   2.349e-01   2.557e-03   1.813e+01   2.810e-02
3.107e-01   3.108e-01   2.744e-01   3.009e-03   1.796e+01   2.027e-02
3.709e-01   3.710e-01   3.196e-01   3.516e-03   1.777e+01   1.036e-02
4.427e-01   4.429e-01   3.710e-01   3.975e-03   1.755e+01   8.363e-03
5.284e-01   5.287e-01   4.294e-01   4.247e-03   1.729e+01   2.130e-02
6.307e-01   6.311e-01   4.954e-01   4.216e-03   1.700e+01   3.437e-02
7.529e-01   7.534e-01   5.696e-01   3.875e-03   1.668e+01   4.245e-02
8.987e-01   8.995e-01   6.530e-01   3.380e-03   1.633e+01   4.199e-02
1.073e+00   1.074e+00   7.463e-01   2.992e-03   1.596e+01   3.292e-02
1.280e+00   1.282e+00   8.509e-01   2.787e-03   1.557e+01   2.244e-02
1.528e+00   1.531e+00   9.682e-01   2.453e-03   1.517e+01   2.205e-02
1.824e+00   1.828e+00   1.100e+00   1.606e-03   1.479e+01   2.401e-02
2.178e+00   2.183e+00   1.247e+00   2.936e-04   1.443e+01   2.025e-02
2.599e+00   2.606e+00   1.414e+00   1.353e-03   1.410e+01   2.239e-02
3.103e+00   3.113e+00   1.602e+00   1.904e-03   1.381e+01   3.204e-02
3.704e+00   3.718e+00   1.816e+00   1.479e-03   1.358e+01   3.416e-02
4.421e+00   4.441e+00   2.061e+00   2.022e-03   1.340e+01   2.692e-02
5.277e+00   5.306e+00   2.340e+00   3.044e-03   1.327e+01   1.832e-02
6.299e+00   6.340e+00   2.657e+00   4.818e-03   1.320e+01   1.183e-02
7.519e+00   7.577e+00   3.015e+00   5.633e-03   1.317e+01   9.833e-03
8.975e+00   9.059e+00   3.419e+00   5.389e-03   1.317e+01   8.954e-03
1.071e+01   1.083e+01   3.868e+00   6.049e-03   1.321e+01   9.185e-03
1.279e+01   1.296e+01   4.364e+00   6.465e-03   1.328e+01   9.621e-03
1.526e+01   1.551e+01   4.901e+00   3.526e-03   1.338e+01   2.832e-02
1.822e+01   1.857e+01   5.476e+00   1.620e-03   1.350e+01   2.329e-02
2.175e+01   2.225e+01   6.082e+00   4.709e-03   1.365e+01   8.262e-03
2.596e+01   2.667e+01   6.712e+00   5.273e-03   1.381e+01   2.190e-02
3.099e+01   3.200e+01   7.352e+00   7.667e-03   1.398e+01   5.731e-03
3.699e+01   3.844e+01   7.994e+00   6.748e-03   1.415e+01   1.378e-02
4.415e+01   4.623e+01   8.630e+00   7.131e-03   1.433e+01   1.306e-02
5.270e+01   5.566e+01   9.253e+00   7.858e-03   1.451e+01   3.046e-02
6.290e+01   6.713e+01   9.859e+00   6.877e-03   1.470e+01   2.255e-02
7.509e+01   8.109e+01   1.045e+01   5.264e-03   1.490e+01   3.251e-03
8.963e+01   9.812e+01   1.102e+01   6.307e-03   1.507e+01   2.659e-02
1.070e+02   1.189e+02   1.157e+01   8.190e-03   1.524e+01   3.912e-02
1.277e+02   1.442e+02   1.209e+01   6.861e-03   1.542e+01   2.424e-02
1.524e+02   1.749e+02   1.260e+01   5.771e-03   1.557e+01   2.154e-02
1.820e+02   2.115e+02   1.308e+01   5.040e-03   1.569e+01   2.299e-02
2.172e+02   2.546e+02   1.353e+01   4.423e-03   1.582e+01   2.393e-02
2.592e+02   3.040e+02   1.397e+01   4.589e-03   1.596e+01   3.013e-02
3.095e+02   3.595e+02   1.439e+01   6.051e-03   1.609e+01   3.737e-02
3.694e+02   4.205e+02   1.479e+01   8.556e-03   1.618e+01   3.808e-02
4.409e+02   4.866e+02   1.517e+01   1.042e-02   1.624e+01   2.837e-02
5.263e+02   5.572e+02   1.552e+01   8.417e-03   1.630e+01   4.306e-02
6.282e+02   6.319e+02   1.586e+01   4.450e-03   1.635e+01   6.616e-02
7.499e+02   7.102e+02   1.617e+01   4.689e-03   1.634e+01   6.324e-02
8.951e+02   7.919e+02   1.647e+01   4.505e-03   1.629e+01   3.873e-02
1.068e+03   8.765e+02   1.674e+01   3.739e-03   1.623e+01   4.074e-02
1.275e+03   9.640e+02   1.700e+01   3.782e-03   1.616e+01   6.075e-02
1.522e+03   1.054e+03   1.724e+01   3.806e-03   1.606e+01   5.742e-02
1.817e+03   1.147e+03   1.747e+01   4.622e-03   1.592e+01   2.316e-02
2.169e+03   1.241e+03   1.768e+01   4.614e-03   1.572e+01   1.089e-01
2.589e+03   1.338e+03   1.788e+01   4.124e-03   1.546e+01   1.721e-01
3.090e+03   1.437e+03   1.807e+01   3.793e-03   1.517e+01   1.554e-01
3.689e+03   1.538e+03   1.825e+01   3.636e-03   1.488e+01   8.061e-02
4.403e+03   1.640e+03   1.842e+01   3.404e-03   1.460e+01   7.192e-02
5.256e+03   1.744e+03   1.858e+01   3.248e-03   1.431e+01   1.451e-01
6.274e+03   1.850e+03   1.874e+01   4.015e-03   1.401e+01   1.724e-01
7.489e+03   1.958e+03   1.889e+01   5.472e-03   1.369e+01   1.634e-01
8.939e+03   2.067e+03   1.904e+01   5.881e-03   1.337e+01   1.545e-01
1.067e+04   2.177e+03   1.918e+01   4.412e-03   1.304e+01   1.506e-01
1.274e+04   2.289e+03   1.932e+01   2.047e-03   1.273e+01   1.352e-01
1.520e+04   2.402e+03   1.946e+01   1.567e-03   1.243e+01   1.424e-01