File: CH4_REF_ISOTHERMS/AIF/ch4_irmof1_300K.aif
data_CH4_IRMOF1_300K
_exptl_date
_exptl_temperature 300
_adsnt_material_id IRMOF-1
_adsnt_filename 'data.IRMOF1_mCBAC_rep111'
_units_temperature K
_units_fugacity BAR
_units_pressure BAR
_units_loading MOL-PER-KiloGM
_units_qst KiloJ-PER-MOL
_exptl_isotherm_type absolute
_exptl_adsorptive_name 'Methane'
_forcefield_adsorptive 'TraPPE CH4; 12ang linear-force shift'
_forcefield_adsnt 'see adsorbent file'

loop_
_adsorp_fugacity
_adsorp_pressure
_adsorp_amount
_adsorp_amount_uncertainty
_adsorp_qst
_adsorp_qst_uncertainty
3.723e-04   3.723e-04   1.235e-04   8.117e-07   9.970e+00   6.987e-03
4.444e-04   4.444e-04   1.474e-04   9.685e-07   9.970e+00   6.986e-03
5.305e-04   5.305e-04   1.759e-04   1.155e-06   9.970e+00   6.985e-03
6.332e-04   6.332e-04   2.100e-04   1.378e-06   9.970e+00   6.984e-03
7.559e-04   7.558e-04   2.506e-04   1.644e-06   9.970e+00   6.982e-03
9.022e-04   9.022e-04   2.992e-04   1.960e-06   9.970e+00   6.980e-03
1.077e-03   1.077e-03   3.571e-04   2.337e-06   9.970e+00   6.978e-03
1.286e-03   1.285e-03   4.263e-04   2.785e-06   9.970e+00   6.975e-03
1.534e-03   1.534e-03   5.088e-04   3.319e-06   9.970e+00   6.972e-03
1.832e-03   1.832e-03   6.074e-04   3.954e-06   9.970e+00   6.968e-03
2.186e-03   2.186e-03   7.250e-04   4.709e-06   9.970e+00   6.964e-03
2.610e-03   2.610e-03   8.654e-04   5.604e-06   9.970e+00   6.958e-03
3.115e-03   3.115e-03   1.033e-03   6.667e-06   9.970e+00   6.952e-03
3.718e-03   3.718e-03   1.233e-03   7.925e-06   9.970e+00   6.944e-03
4.438e-03   4.438e-03   1.472e-03   9.414e-06   9.970e+00   6.935e-03
5.298e-03   5.298e-03   1.757e-03   1.117e-05   9.970e+00   6.924e-03
6.324e-03   6.324e-03   2.097e-03   1.324e-05   9.970e+00   6.912e-03
7.549e-03   7.548e-03   2.504e-03   1.567e-05   9.970e+00   6.896e-03
9.010e-03   9.010e-03   2.989e-03   1.852e-05   9.970e+00   6.878e-03
1.076e-02   1.076e-02   3.567e-03   2.184e-05   9.970e+00   6.857e-03
1.284e-02   1.284e-02   4.259e-03   2.569e-05   9.970e+00   6.832e-03
1.532e-02   1.532e-02   5.084e-03   3.013e-05   9.971e+00   6.803e-03
1.829e-02   1.829e-02   6.069e-03   3.521e-05   9.971e+00   6.768e-03
2.183e-02   2.183e-02   7.245e-03   4.096e-05   9.971e+00   6.728e-03
2.606e-02   2.606e-02   8.649e-03   4.740e-05   9.971e+00   6.682e-03
3.111e-02   3.111e-02   1.033e-02   5.447e-05   9.972e+00   6.629e-03
3.713e-02   3.713e-02   1.233e-02   6.208e-05   9.972e+00   6.569e-03
4.433e-02   4.433e-02   1.472e-02   6.999e-05   9.973e+00   6.502e-03
5.291e-02   5.291e-02   1.757e-02   7.785e-05   9.973e+00   6.428e-03
6.316e-02   6.316e-02   2.098e-02   8.506e-05   9.974e+00   6.349e-03
7.539e-02   7.539e-02   2.505e-02   9.076e-05   9.975e+00   6.269e-03
8.998e-02   8.999e-02   2.992e-02   9.370e-05   9.976e+00   6.193e-03
1.074e-01   1.074e-01   3.573e-02   9.221e-05   9.977e+00   6.129e-03
1.282e-01   1.282e-01   4.266e-02   8.428e-05   9.978e+00   6.091e-03
1.530e-01   1.531e-01   5.096e-02   6.815e-05   9.979e+00   6.097e-03
1.827e-01   1.827e-01   6.086e-02   4.736e-05   9.981e+00   6.167e-03
2.181e-01   2.181e-01   7.270e-02   5.702e-05   9.983e+00   6.325e-03
2.603e-01   2.603e-01   8.684e-02   1.228e-04   9.985e+00   6.590e-03
3.107e-01   3.108e-01   1.037e-01   2.269e-04   9.987e+00   6.967e-03
3.709e-01   3.710e-01   1.239e-01   3.666e-04   9.990e+00   7.439e-03
4.427e-01   4.429e-01   1.480e-01   5.420e-04   9.993e+00   7.961e-03
5.284e-01   5.287e-01   1.768e-01   7.497e-04   9.997e+00   8.450e-03
6.307e-01   6.311e-01   2.111e-01   9.804e-04   1.000e+01   8.786e-03
7.529e-01   7.534e-01   2.520e-01   1.217e-03   1.001e+01   8.821e-03
8.987e-01   8.995e-01   3.008e-01   1.432e-03   1.001e+01   8.394e-03
1.073e+00   1.074e+00   3.589e-01   1.588e-03   1.002e+01   7.382e-03
1.280e+00   1.282e+00   4.280e-01   1.636e-03   1.003e+01   5.787e-03
1.528e+00   1.531e+00   5.104e-01   1.527e-03   1.004e+01   3.901e-03
1.824e+00   1.828e+00   6.083e-01   1.240e-03   1.005e+01   2.814e-03
2.178e+00   2.183e+00   7.247e-01   8.500e-04   1.006e+01   3.851e-03
2.599e+00   2.606e+00   8.631e-01   6.388e-04   1.008e+01   5.702e-03
3.103e+00   3.113e+00   1.027e+00   7.314e-04   1.010e+01   7.340e-03
3.704e+00   3.718e+00   1.222e+00   6.925e-04   1.012e+01   8.391e-03
4.421e+00   4.441e+00   1.453e+00   4.923e-04   1.014e+01   8.691e-03
5.277e+00   5.306e+00   1.726e+00   8.016e-04   1.018e+01   9.063e-03
6.299e+00   6.340e+00   2.047e+00   1.661e-03   1.021e+01   9.883e-03
7.519e+00   7.577e+00   2.425e+00   2.876e-03   1.026e+01   7.954e-03
8.975e+00   9.059e+00   2.868e+00   3.710e-03   1.032e+01   3.010e-03
1.071e+01   1.083e+01   3.384e+00   4.536e-03   1.039e+01   3.222e-03
1.279e+01   1.296e+01   3.983e+00   6.139e-03   1.047e+01   2.132e-03
1.526e+01   1.551e+01   4.672e+00   7.876e-03   1.056e+01   1.344e-02
1.822e+01   1.857e+01   5.458e+00   1.060e-02   1.067e+01   8.136e-03
2.175e+01   2.225e+01   6.339e+00   1.148e-02   1.081e+01   1.003e-02
2.596e+01   2.667e+01   7.312e+00   5.893e-03   1.097e+01   7.783e-03
3.099e+01   3.200e+01   8.374e+00   6.209e-03   1.116e+01   4.481e-03
3.699e+01   3.844e+01   9.514e+00   6.699e-03   1.138e+01   5.146e-03
4.415e+01   4.623e+01   1.070e+01   9.308e-03   1.163e+01   4.046e-03
5.270e+01   5.566e+01   1.192e+01   3.413e-03   1.190e+01   7.634e-03
6.290e+01   6.713e+01   1.313e+01   3.258e-03   1.218e+01   1.604e-03
7.509e+01   8.109e+01   1.432e+01   5.660e-03   1.246e+01   9.036e-03
8.963e+01   9.812e+01   1.547e+01   6.281e-03   1.275e+01   7.317e-03
1.070e+02   1.189e+02   1.656e+01   8.307e-03   1.302e+01   9.208e-03
1.277e+02   1.442e+02   1.760e+01   8.749e-03   1.327e+01   1.552e-02
1.524e+02   1.749e+02   1.857e+01   5.094e-03   1.351e+01   1.443e-02
1.820e+02   2.115e+02   1.947e+01   3.893e-03   1.372e+01   9.099e-03
2.172e+02   2.546e+02   2.031e+01   7.067e-03   1.388e+01   3.083e-03
2.592e+02   3.040e+02   2.110e+01   8.179e-03   1.400e+01   1.666e-02
3.095e+02   3.595e+02   2.184e+01   3.386e-03   1.413e+01   3.388e-02
3.694e+02   4.205e+02   2.252e+01   7.136e-03   1.424e+01   2.780e-02
4.409e+02   4.866e+02   2.317e+01   1.025e-02   1.429e+01   3.511e-02
5.263e+02   5.572e+02   2.377e+01   9.965e-03   1.432e+01   5.047e-02
6.282e+02   6.319e+02   2.435e+01   8.364e-03   1.433e+01   4.200e-02
7.499e+02   7.102e+02   2.489e+01   7.093e-03   1.430e+01   2.739e-02
8.951e+02   7.919e+02   2.541e+01   1.052e-02   1.426e+01   2.608e-02
1.068e+03   8.765e+02   2.590e+01   1.130e-02   1.421e+01   4.158e-02
1.275e+03   9.640e+02   2.637e+01   8.384e-03   1.415e+01   5.588e-02
1.522e+03   1.054e+03   2.683e+01   5.340e-03   1.408e+01   6.011e-02
1.817e+03   1.147e+03   2.727e+01   5.076e-03   1.401e+01   4.857e-02
2.169e+03   1.241e+03   2.770e+01   7.332e-03   1.393e+01   3.195e-02
2.589e+03   1.338e+03   2.812e+01   9.792e-03   1.385e+01   4.010e-02
3.090e+03   1.437e+03   2.853e+01   1.140e-02   1.378e+01   5.848e-02
3.689e+03   1.538e+03   2.893e+01   1.255e-02   1.371e+01   4.901e-02
4.403e+03   1.640e+03   2.933e+01   1.537e-02   1.366e+01   5.640e-02
5.256e+03   1.744e+03   2.972e+01   2.080e-02   1.361e+01   9.025e-02
6.274e+03   1.850e+03   3.011e+01   2.678e-02   1.358e+01   8.024e-02
7.489e+03   1.958e+03   3.049e+01   3.093e-02   1.356e+01   5.961e-02
8.939e+03   2.067e+03   3.087e+01   3.444e-02   1.353e+01   7.002e-02
1.067e+04   2.177e+03   3.124e+01   3.555e-02   1.349e+01   4.086e-02
1.274e+04   2.289e+03   3.160e+01   3.142e-02   1.348e+01   3.225e-02
1.520e+04   2.402e+03   3.195e+01   2.435e-02   1.347e+01   7.693e-02