File: CH4_REF_ISOTHERMS/AIF/ch4_cubtc_350K.aif
data_CH4_CuBTC_350K
_exptl_date
_exptl_temperature 350
_adsnt_material_id CuBTC
_adsnt_filename 'data.CuBTC_CaleroIV_rep111'
_units_temperature K
_units_fugacity BAR
_units_pressure BAR
_units_loading MOL-PER-KiloGM
_units_qst KiloJ-PER-MOL
_exptl_isotherm_type absolute
_exptl_adsorptive_name 'Methane'
_forcefield_adsorptive 'TraPPE CH4; 12ang linear-force shift'
_forcefield_adsnt 'see adsorbent file'

loop_
_adsorp_fugacity
_adsorp_pressure
_adsorp_amount
_adsorp_amount_uncertainty
_adsorp_qst
_adsorp_qst_uncertainty
2.421e-03   2.420e-03   8.689e-04   4.602e-05   1.759e+01   2.026e-02
2.857e-03   2.856e-03   1.025e-03   5.420e-05   1.759e+01   2.027e-02
3.371e-03   3.370e-03   1.210e-03   6.381e-05   1.759e+01   2.028e-02
3.978e-03   3.976e-03   1.427e-03   7.510e-05   1.759e+01   2.030e-02
4.693e-03   4.691e-03   1.684e-03   8.834e-05   1.759e+01   2.032e-02
5.538e-03   5.536e-03   1.986e-03   1.039e-04   1.759e+01   2.034e-02
6.534e-03   6.532e-03   2.344e-03   1.220e-04   1.759e+01   2.037e-02
7.710e-03   7.707e-03   2.765e-03   1.433e-04   1.758e+01   2.041e-02
9.097e-03   9.093e-03   3.262e-03   1.681e-04   1.758e+01   2.045e-02
1.073e-02   1.073e-02   3.848e-03   1.969e-04   1.758e+01   2.051e-02
1.267e-02   1.266e-02   4.539e-03   2.305e-04   1.758e+01   2.059e-02
1.494e-02   1.494e-02   5.354e-03   2.694e-04   1.758e+01   2.069e-02
1.763e-02   1.763e-02   6.315e-03   3.143e-04   1.757e+01   2.081e-02
2.081e-02   2.080e-02   7.449e-03   3.659e-04   1.757e+01   2.097e-02
2.455e-02   2.454e-02   8.784e-03   4.251e-04   1.756e+01   2.117e-02
2.897e-02   2.895e-02   1.036e-02   4.925e-04   1.756e+01   2.142e-02
3.418e-02   3.416e-02   1.221e-02   5.687e-04   1.755e+01   2.175e-02
4.033e-02   4.031e-02   1.440e-02   6.544e-04   1.755e+01   2.216e-02
4.758e-02   4.756e-02   1.698e-02   7.497e-04   1.754e+01   2.267e-02
5.614e-02   5.612e-02   2.001e-02   8.547e-04   1.753e+01   2.329e-02
6.624e-02   6.622e-02   2.358e-02   9.688e-04   1.751e+01   2.405e-02
7.816e-02   7.813e-02   2.778e-02   1.091e-03   1.750e+01   2.496e-02
9.223e-02   9.219e-02   3.272e-02   1.220e-03   1.748e+01   2.602e-02
1.088e-01   1.088e-01   3.853e-02   1.352e-03   1.746e+01   2.723e-02
1.284e-01   1.284e-01   4.535e-02   1.484e-03   1.744e+01   2.859e-02
1.515e-01   1.515e-01   5.335e-02   1.613e-03   1.742e+01   3.006e-02
1.788e-01   1.787e-01   6.274e-02   1.733e-03   1.738e+01   3.158e-02
2.109e-01   2.109e-01   7.373e-02   1.839e-03   1.735e+01   3.309e-02
2.489e-01   2.488e-01   8.660e-02   1.926e-03   1.731e+01   3.446e-02
2.937e-01   2.936e-01   1.016e-01   1.989e-03   1.726e+01   3.552e-02
3.465e-01   3.464e-01   1.192e-01   2.025e-03   1.720e+01   3.603e-02
4.088e-01   4.088e-01   1.396e-01   2.035e-03   1.713e+01   3.569e-02
4.824e-01   4.823e-01   1.634e-01   2.027e-03   1.705e+01   3.410e-02
5.692e-01   5.691e-01   1.910e-01   2.026e-03   1.697e+01   3.085e-02
6.716e-01   6.716e-01   2.229e-01   2.076e-03   1.687e+01   2.556e-02
7.924e-01   7.924e-01   2.598e-01   2.218e-03   1.675e+01   1.815e-02
9.350e-01   9.351e-01   3.022e-01   2.454e-03   1.662e+01   9.942e-03
1.103e+00   1.103e+00   3.510e-01   2.716e-03   1.647e+01   1.063e-02
1.302e+00   1.302e+00   4.069e-01   2.892e-03   1.630e+01   2.181e-02
1.536e+00   1.537e+00   4.707e-01   2.869e-03   1.611e+01   3.350e-02
1.812e+00   1.813e+00   5.434e-01   2.594e-03   1.590e+01   4.196e-02
2.138e+00   2.140e+00   6.259e-01   2.127e-03   1.567e+01   4.488e-02
2.523e+00   2.526e+00   7.194e-01   1.655e-03   1.543e+01   4.176e-02
2.977e+00   2.981e+00   8.251e-01   1.363e-03   1.517e+01   3.451e-02
3.513e+00   3.518e+00   9.445e-01   1.319e-03   1.491e+01   2.668e-02
4.145e+00   4.152e+00   1.079e+00   2.010e-03   1.464e+01   2.130e-02
4.890e+00   4.901e+00   1.230e+00   3.703e-03   1.439e+01   1.965e-02
5.770e+00   5.785e+00   1.400e+00   5.794e-03   1.414e+01   2.107e-02
6.809e+00   6.830e+00   1.592e+00   7.370e-03   1.392e+01   2.236e-02
8.034e+00   8.063e+00   1.807e+00   7.517e-03   1.373e+01   2.153e-02
9.479e+00   9.520e+00   2.048e+00   5.994e-03   1.358e+01   2.280e-02
1.118e+01   1.124e+01   2.317e+00   3.899e-03   1.345e+01   2.608e-02
1.320e+01   1.328e+01   2.619e+00   2.447e-03   1.336e+01   2.431e-02
1.557e+01   1.568e+01   2.954e+00   9.257e-04   1.331e+01   1.868e-02
1.837e+01   1.852e+01   3.325e+00   2.955e-03   1.328e+01   1.265e-02
2.168e+01   2.189e+01   3.730e+00   5.125e-03   1.330e+01   8.874e-03
2.558e+01   2.587e+01   4.169e+00   4.725e-03   1.335e+01   1.322e-02
3.018e+01   3.058e+01   4.641e+00   2.340e-03   1.344e+01   1.729e-02
3.561e+01   3.616e+01   5.144e+00   1.831e-03   1.354e+01   1.649e-02
4.202e+01   4.278e+01   5.671e+00   3.258e-03   1.365e+01   6.570e-03
4.958e+01   5.063e+01   6.217e+00   3.363e-03   1.379e+01   1.842e-02
5.850e+01   5.993e+01   6.776e+00   2.769e-03   1.395e+01   2.718e-02
6.903e+01   7.098e+01   7.342e+00   2.377e-03   1.411e+01   2.109e-02
8.144e+01   8.408e+01   7.907e+00   4.256e-03   1.428e+01   1.655e-03
9.610e+01   9.964e+01   8.469e+00   4.619e-03   1.446e+01   6.313e-03
1.134e+02   1.181e+02   9.024e+00   3.828e-03   1.463e+01   1.016e-02
1.338e+02   1.399e+02   9.566e+00   2.540e-03   1.481e+01   1.295e-02
1.579e+02   1.656e+02   1.009e+01   1.197e-03   1.497e+01   2.927e-02
1.863e+02   1.957e+02   1.061e+01   2.592e-03   1.512e+01   1.408e-02
2.198e+02   2.308e+02   1.111e+01   3.441e-03   1.527e+01   9.365e-03
2.593e+02   2.711e+02   1.159e+01   3.501e-03   1.541e+01   7.912e-03
3.060e+02   3.169e+02   1.206e+01   6.671e-03   1.553e+01   1.397e-02
3.610e+02   3.682e+02   1.251e+01   1.098e-02   1.564e+01   1.496e-02
4.260e+02   4.249e+02   1.295e+01   1.251e-02   1.575e+01   2.045e-02
5.026e+02   4.867e+02   1.337e+01   9.159e-03   1.585e+01   3.156e-02
5.931e+02   5.535e+02   1.377e+01   4.879e-03   1.593e+01   4.211e-02
6.998e+02   6.247e+02   1.416e+01   3.358e-03   1.599e+01   3.546e-02
8.257e+02   7.001e+02   1.453e+01   4.105e-03   1.604e+01   1.678e-02
9.743e+02   7.795e+02   1.489e+01   4.407e-03   1.607e+01   2.486e-02
1.150e+03   8.624e+02   1.523e+01   2.864e-03   1.611e+01   4.344e-02
1.356e+03   9.486e+02   1.555e+01   2.220e-03   1.614e+01   5.733e-02
1.600e+03   1.038e+03   1.586e+01   3.541e-03   1.613e+01   5.633e-02
1.888e+03   1.130e+03   1.616e+01   4.334e-03   1.608e+01   2.738e-02
2.228e+03   1.225e+03   1.644e+01   5.824e-03   1.602e+01   2.404e-02
2.629e+03   1.323e+03   1.670e+01   6.929e-03   1.595e+01   6.063e-02
3.102e+03   1.423e+03   1.696e+01   7.138e-03   1.584e+01   8.487e-02
3.660e+03   1.525e+03   1.720e+01   6.747e-03   1.571e+01   1.066e-01
4.319e+03   1.630e+03   1.742e+01   6.719e-03   1.556e+01   1.194e-01
5.096e+03   1.736e+03   1.764e+01   7.671e-03   1.538e+01   9.718e-02
6.013e+03   1.845e+03   1.784e+01   8.688e-03   1.516e+01   9.201e-02
7.094e+03   1.955e+03   1.803e+01   7.855e-03   1.491e+01   1.735e-01
8.371e+03   2.068e+03   1.822e+01   4.778e-03   1.463e+01   2.543e-01
9.877e+03   2.182e+03   1.840e+01   2.305e-03   1.433e+01   2.747e-01
1.165e+04   2.297e+03   1.857e+01   4.409e-03   1.402e+01   2.288e-01
1.375e+04   2.415e+03   1.873e+01   5.767e-03   1.373e+01   1.481e-01
1.623e+04   2.534e+03   1.889e+01   4.745e-03   1.345e+01   1.015e-01
1.914e+04   2.654e+03   1.904e+01   3.482e-03   1.315e+01   1.454e-01
2.259e+04   2.776e+03   1.919e+01   5.757e-03   1.283e+01   1.908e-01
2.665e+04   2.899e+03   1.934e+01   8.384e-03   1.247e+01   1.867e-01
3.145e+04   3.023e+03   1.948e+01   9.586e-03   1.210e+01   1.457e-01