File: H2O_REF_ISOTHERMS/AIF/h2o_cubtc_300K.aif
data_H2O_CuBTC_300K
_exptl_temperature 300
_adsnt_material_id CuBTC
_simltn_adsorbent_filename 'data.CuBTC_CaleroIV_rep111'
_units_temperature K
_units_fugacity PA
_units_pressure RELATIVE
_units_loading MOL-PER-KiloGM
_units_qst KiloJ-PER-MOL
_exptl_isotherm_type absolute
_exptl_adsorptive_name 'Water'
_simltn_forcefield_adsorptive 'SPC/E H2O; 10ang linear-force shift'
_simltn_forcefield_adsorbent 'see adsorbent file'

loop_
_adsorp_fugacity
_adsorp_pressure
_adsorp_amount
_adsorp_amount_uncertainty
8.53719e+00  6.75520e-03  8.10892e-03  1.11096e-04
8.70965e+00  6.89166e-03  8.27267e-03  1.13245e-04
8.88560e+00  7.03089e-03  8.43973e-03  1.15434e-04
9.06510e+00  7.17293e-03  8.61017e-03  1.17664e-04
9.24823e+00  7.31783e-03  8.78404e-03  1.19934e-04
9.43505e+00  7.46567e-03  8.96142e-03  1.22245e-04
9.62565e+00  7.61649e-03  9.14238e-03  1.24599e-04
9.82010e+00  7.77036e-03  9.32700e-03  1.26996e-04
1.00185e+01  7.92734e-03  9.51534e-03  1.29436e-04
1.02209e+01  8.08749e-03  9.70748e-03  1.31921e-04
1.04273e+01  8.25087e-03  9.90351e-03  1.34451e-04
1.06380e+01  8.41756e-03  1.01035e-02  1.37026e-04
1.08529e+01  8.58761e-03  1.03075e-02  1.39647e-04
1.10721e+01  8.76110e-03  1.05156e-02  1.42316e-04
1.12958e+01  8.93809e-03  1.07280e-02  1.45032e-04
1.15240e+01  9.11866e-03  1.09446e-02  1.47796e-04
1.17568e+01  9.30288e-03  1.11656e-02  1.50610e-04
1.19943e+01  9.49082e-03  1.13910e-02  1.53474e-04
1.22366e+01  9.68255e-03  1.16210e-02  1.56388e-04
1.24838e+01  9.87816e-03  1.18557e-02  1.59354e-04
1.27360e+01  1.00777e-02  1.20951e-02  1.62372e-04
1.29933e+01  1.02813e-02  1.23393e-02  1.65442e-04
1.32558e+01  1.04890e-02  1.25884e-02  1.68567e-04
1.35235e+01  1.07009e-02  1.28426e-02  1.71745e-04
1.37967e+01  1.09171e-02  1.31019e-02  1.74979e-04
1.40754e+01  1.11377e-02  1.33664e-02  1.78268e-04
1.43598e+01  1.13627e-02  1.36363e-02  1.81614e-04
1.46499e+01  1.15922e-02  1.39116e-02  1.85017e-04
1.49458e+01  1.18264e-02  1.41924e-02  1.88479e-04
1.52477e+01  1.20653e-02  1.44790e-02  1.91999e-04
1.55558e+01  1.23091e-02  1.47713e-02  1.95578e-04
1.58700e+01  1.25578e-02  1.50695e-02  1.99218e-04
1.61906e+01  1.28115e-02  1.53737e-02  2.02919e-04
1.65177e+01  1.30703e-02  1.56841e-02  2.06682e-04
1.68514e+01  1.33343e-02  1.60007e-02  2.10507e-04
1.71918e+01  1.36037e-02  1.63238e-02  2.14395e-04
1.75391e+01  1.38786e-02  1.66533e-02  2.18347e-04
1.78934e+01  1.41589e-02  1.69895e-02  2.22364e-04
1.82549e+01  1.44450e-02  1.73325e-02  2.26446e-04
1.86236e+01  1.47368e-02  1.76823e-02  2.30594e-04
1.89999e+01  1.50345e-02  1.80393e-02  2.34809e-04
1.93837e+01  1.53383e-02  1.84034e-02  2.39091e-04
1.97753e+01  1.56482e-02  1.87749e-02  2.43441e-04
2.01747e+01  1.59643e-02  1.91539e-02  2.47860e-04
2.05823e+01  1.62868e-02  1.95406e-02  2.52348e-04
2.09981e+01  1.66159e-02  1.99350e-02  2.56905e-04
2.14223e+01  1.69515e-02  2.03374e-02  2.61534e-04
2.18550e+01  1.72940e-02  2.07479e-02  2.66233e-04
2.22965e+01  1.76434e-02  2.11667e-02  2.71003e-04
2.27470e+01  1.79999e-02  2.15939e-02  2.75846e-04
2.32065e+01  1.83635e-02  2.20298e-02  2.80762e-04
2.36753e+01  1.87345e-02  2.24744e-02  2.85750e-04
2.41536e+01  1.91130e-02  2.29281e-02  2.90812e-04
2.46415e+01  1.94991e-02  2.33908e-02  2.95947e-04
2.51393e+01  1.98931e-02  2.38629e-02  3.01157e-04
2.56471e+01  2.02950e-02  2.43446e-02  3.06442e-04
2.61652e+01  2.07050e-02  2.48359e-02  3.11801e-04
2.66938e+01  2.11233e-02  2.53372e-02  3.17236e-04
2.72331e+01  2.15501e-02  2.58485e-02  3.22746e-04
2.77832e+01  2.19855e-02  2.63702e-02  3.28331e-04
2.83445e+01  2.24297e-02  2.69024e-02  3.33992e-04
2.89171e+01  2.28828e-02  2.74454e-02  3.39729e-04
2.95012e+01  2.33451e-02  2.79993e-02  3.45541e-04
3.00972e+01  2.38168e-02  2.85643e-02  3.51429e-04
3.07052e+01  2.42980e-02  2.91408e-02  3.57393e-04
3.13255e+01  2.47889e-02  2.97289e-02  3.63432e-04
3.19583e+01  2.52897e-02  3.03288e-02  3.69547e-04
3.26039e+01  2.58007e-02  3.09409e-02  3.75736e-04
3.32625e+01  2.63219e-02  3.15653e-02  3.82000e-04
3.39345e+01  2.68537e-02  3.22023e-02  3.88338e-04
3.46200e+01  2.73963e-02  3.28522e-02  3.94749e-04
3.53194e+01  2.79498e-02  3.35152e-02  4.01234e-04
3.60329e+01  2.85145e-02  3.41915e-02  4.07790e-04
3.67608e+01  2.90906e-02  3.48815e-02  4.14419e-04
3.75034e+01  2.96784e-02  3.55855e-02  4.21117e-04
3.82610e+01  3.02780e-02  3.63036e-02  4.27886e-04
3.90339e+01  3.08897e-02  3.70363e-02  4.34723e-04
3.98225e+01  3.15138e-02  3.77837e-02  4.41627e-04
4.06270e+01  3.21505e-02  3.85462e-02  4.48597e-04
4.14477e+01  3.28001e-02  3.93241e-02  4.55631e-04
4.22850e+01  3.34628e-02  4.01177e-02  4.62729e-04
4.31392e+01  3.41389e-02  4.09274e-02  4.69887e-04
4.40107e+01  3.48287e-02  4.17534e-02  4.77105e-04
4.48997e+01  3.55324e-02  4.25961e-02  4.84380e-04
4.58068e+01  3.62503e-02  4.34558e-02  4.91710e-04
4.67321e+01  3.69828e-02  4.43329e-02  4.99094e-04
4.76762e+01  3.77300e-02  4.52277e-02  5.06527e-04
4.86393e+01  3.84923e-02  4.61406e-02  5.14009e-04
4.96219e+01  3.92701e-02  4.70720e-02  5.21535e-04
5.06243e+01  4.00635e-02  4.80222e-02  5.29104e-04
5.16470e+01  4.08730e-02  4.89916e-02  5.36711e-04
5.26903e+01  4.16988e-02  4.99807e-02  5.44354e-04
5.37547e+01  4.25414e-02  5.09897e-02  5.52029e-04
5.48407e+01  4.34010e-02  5.20192e-02  5.59733e-04
5.59485e+01  4.42779e-02  5.30696e-02  5.67460e-04
5.70787e+01  4.51726e-02  5.41412e-02  5.75208e-04
5.82318e+01  4.60853e-02  5.52345e-02  5.82971e-04
5.94082e+01  4.70165e-02  5.63500e-02  5.90745e-04
6.06083e+01  4.79665e-02  5.74881e-02  5.98526e-04
6.18327e+01  4.89357e-02  5.86494e-02  6.06307e-04
6.30818e+01  4.99245e-02  5.98342e-02  6.14085e-04
6.43561e+01  5.09333e-02  6.10430e-02  6.21852e-04
6.56562e+01  5.19624e-02  6.22765e-02  6.29604e-04
6.69825e+01  5.30124e-02  6.35350e-02  6.37334e-04
6.83357e+01  5.40836e-02  6.48191e-02  6.45036e-04
6.97161e+01  5.51764e-02  6.61294e-02  6.52703e-04
7.11245e+01  5.62914e-02  6.74663e-02  6.60328e-04
7.25613e+01  5.74288e-02  6.88305e-02  6.67905e-04
7.40271e+01  5.85893e-02  7.02226e-02  6.75425e-04
7.55226e+01  5.97732e-02  7.16431e-02  6.82880e-04
7.70482e+01  6.09810e-02  7.30926e-02  6.90264e-04
7.86047e+01  6.22133e-02  7.45717e-02  6.97567e-04
8.01926e+01  6.34704e-02  7.60812e-02  7.04781e-04
8.18126e+01  6.47530e-02  7.76215e-02  7.11896e-04
8.34654e+01  6.60615e-02  7.91935e-02  7.18905e-04
8.51515e+01  6.73965e-02  8.07978e-02  7.25797e-04
8.68717e+01  6.87584e-02  8.24351e-02  7.32562e-04
8.86266e+01  7.01479e-02  8.41061e-02  7.39191e-04
9.04169e+01  7.15654e-02  8.58116e-02  7.45673e-04
9.22435e+01  7.30116e-02  8.75523e-02  7.51997e-04
9.41069e+01  7.44871e-02  8.93290e-02  7.58154e-04
9.60080e+01  7.59923e-02  9.11426e-02  7.64131e-04
9.79475e+01  7.75280e-02  9.29938e-02  7.69917e-04
9.99262e+01  7.90948e-02  9.48834e-02  7.75502e-04
1.01945e+02  8.06932e-02  9.68125e-02  7.80872e-04
1.04004e+02  8.23239e-02  9.87818e-02  7.86016e-04
1.06105e+02  8.39876e-02  1.00792e-01  7.90922e-04
1.08249e+02  8.56850e-02  1.02845e-01  7.95578e-04
1.10436e+02  8.74166e-02  1.04941e-01  7.99970e-04
1.12666e+02  8.91833e-02  1.07081e-01  8.04086e-04
1.14942e+02  9.09857e-02  1.09266e-01  8.07912e-04
1.17264e+02  9.28245e-02  1.11498e-01  8.11437e-04
1.19633e+02  9.47005e-02  1.13777e-01  8.14645e-04
1.22050e+02  9.66144e-02  1.16104e-01  8.17525e-04
1.24516e+02  9.85671e-02  1.18482e-01  8.20062e-04
1.27031e+02  1.00559e-01  1.20910e-01  8.22242e-04
1.29597e+02  1.02592e-01  1.23391e-01  8.24051e-04
1.32215e+02  1.04665e-01  1.25926e-01  8.25476e-04
1.34886e+02  1.06781e-01  1.28516e-01  8.26502e-04
1.37611e+02  1.08939e-01  1.31162e-01  8.27114e-04
1.40391e+02  1.11141e-01  1.33866e-01  8.27298e-04
1.43227e+02  1.13387e-01  1.36630e-01  8.27039e-04
1.46121e+02  1.15679e-01  1.39455e-01  8.26322e-04
1.49072e+02  1.18017e-01  1.42343e-01  8.25131e-04
1.52084e+02  1.20402e-01  1.45296e-01  8.23451e-04
1.55156e+02  1.22836e-01  1.48316e-01  8.21265e-04
1.58290e+02  1.25319e-01  1.51404e-01  8.18557e-04
1.61488e+02  1.27852e-01  1.54563e-01  8.15311e-04
1.64750e+02  1.30436e-01  1.57795e-01  8.11510e-04
1.68079e+02  1.33073e-01  1.61101e-01  8.07136e-04
1.71474e+02  1.35763e-01  1.64485e-01  8.02174e-04
1.74938e+02  1.38507e-01  1.67949e-01  7.96607e-04
1.78472e+02  1.41307e-01  1.71496e-01  7.90418e-04
1.82077e+02  1.44164e-01  1.75127e-01  7.83593e-04
1.85756e+02  1.47078e-01  1.78848e-01  7.76120e-04
1.89508e+02  1.50051e-01  1.82659e-01  7.67988e-04
1.93336e+02  1.53085e-01  1.86566e-01  7.59194e-04
1.97242e+02  1.56179e-01  1.90570e-01  7.49739e-04
2.01227e+02  1.59337e-01  1.94677e-01  7.39635e-04
2.05292e+02  1.62558e-01  1.98891e-01  7.28909e-04
2.09439e+02  1.65845e-01  2.03214e-01  7.17604e-04
2.13670e+02  1.69197e-01  2.07653e-01  7.05792e-04
2.17986e+02  1.72618e-01  2.12212e-01  6.93578e-04
2.22390e+02  1.76108e-01  2.16897e-01  6.81117e-04
2.26882e+02  1.79669e-01  2.21714e-01  6.68627e-04
2.31466e+02  1.83302e-01  2.26669e-01  6.56409e-04
2.36142e+02  1.87008e-01  2.31768e-01  6.44874e-04
2.40912e+02  1.90789e-01  2.37021e-01  6.34569e-04
2.45779e+02  1.94647e-01  2.42434e-01  6.26213e-04
2.50744e+02  1.98582e-01  2.48018e-01  6.20721e-04
2.55809e+02  2.02598e-01  2.53782e-01  6.19228e-04
2.60977e+02  2.06695e-01  2.59738e-01  6.23088e-04
2.66249e+02  2.10874e-01  2.65900e-01  6.33845e-04
2.71628e+02  2.15138e-01  2.72280e-01  6.53167e-04
2.77115e+02  2.19489e-01  2.78897e-01  6.82765e-04
2.82713e+02  2.23928e-01  2.85769e-01  7.24327e-04
2.88424e+02  2.28456e-01  2.92920e-01  7.79532e-04
2.94251e+02  2.33076e-01  3.00380e-01  8.50215e-04
3.00195e+02  2.37790e-01  3.08187e-01  9.38797e-04
3.06259e+02  2.42599e-01  3.16398e-01  1.04922e-03
3.12446e+02  2.47506e-01  3.25105e-01  1.18893e-03
3.18758e+02  2.52512e-01  3.34469e-01  1.37310e-03
3.25197e+02  2.57619e-01  3.44801e-01  1.63393e-03
3.31767e+02  2.62830e-01  3.56744e-01  2.04135e-03
3.38469e+02  2.68146e-01  3.71679e-01  2.74881e-03
3.45306e+02  2.73570e-01  3.92670e-01  4.09435e-03
3.52282e+02  2.79103e-01  4.26657e-01  6.81657e-03
3.59398e+02  2.84749e-01  4.89736e-01  1.24799e-02
3.66659e+02  2.90509e-01  6.18688e-01  2.08760e-02
3.74066e+02  2.96386e-01  9.01908e-01  4.49719e-02
3.81622e+02  3.02382e-01  1.54210e+00  7.45273e-02
3.89332e+02  3.08500e-01  2.95034e+00  1.00338e-01
3.97197e+02  3.14741e-01  5.55673e+00  2.81648e+00

loop_
_desorp_fugacity
_desorp_pressure
_desorp_amount
_desorp_amount_uncertainty
3.66659e+02  2.90509e-01  2.97914e+01  8.11406e-01
3.70344e+02  2.93433e-01  3.04320e+01  1.21591e-01
3.74066e+02  2.96386e-01  3.08018e+01  1.27899e-01
3.77825e+02  2.99369e-01  3.10617e+01  1.23388e-01
3.81622e+02  3.02382e-01  3.12652e+01  1.12731e-01
3.85458e+02  3.05426e-01  3.14329e+01  1.01151e-01
3.89332e+02  3.08500e-01  3.15751e+01  9.07986e-02
3.93245e+02  3.11605e-01  3.16985e+01  8.23632e-02
3.97197e+02  3.14741e-01  3.18082e+01  7.59015e-02
4.01189e+02  3.17909e-01  3.19078e+01  7.12199e-02
4.05221e+02  3.21109e-01  3.20002e+01  6.80546e-02
4.09293e+02  3.24341e-01  3.20876e+01  6.61523e-02
4.13407e+02  3.27606e-01  3.21718e+01  6.53005e-02
4.17561e+02  3.30904e-01  3.22538e+01  6.53323e-02
4.21758e+02  3.34234e-01  3.23346e+01  6.61196e-02
4.25997e+02  3.37599e-01  3.24150e+01  6.75632e-02
4.30278e+02  3.40997e-01  3.24954e+01  6.95813e-02
4.34602e+02  3.44430e-01  3.25763e+01  7.21005e-02
4.38970e+02  3.47897e-01  3.26579e+01  7.50477e-02
4.43382e+02  3.51400e-01  3.27405e+01  7.83447e-02
4.47838e+02  3.54937e-01  3.28242e+01  8.19059e-02
4.52339e+02  3.58510e-01  3.29092e+01  8.56375e-02
4.56885e+02  3.62120e-01  3.29955e+01  8.94390e-02
4.61477e+02  3.65765e-01  3.30832e+01  9.32063e-02
4.66115e+02  3.69448e-01  3.31724e+01  9.68357e-02
4.70799e+02  3.73168e-01  3.32630e+01  1.00228e-01
4.75531e+02  3.76925e-01  3.33552e+01  1.03295e-01
4.80310e+02  3.80720e-01  3.34488e+01  1.05961e-01
4.85137e+02  3.84553e-01  3.35439e+01  1.08171e-01
4.90013e+02  3.88425e-01  3.36404e+01  1.09887e-01
4.94938e+02  3.92336e-01  3.37384e+01  1.11099e-01
4.99912e+02  3.96286e-01  3.38377e+01  1.11819e-01
5.04936e+02  4.00277e-01  3.39384e+01  1.12080e-01
5.10011e+02  4.04307e-01  3.40404e+01  1.11938e-01
5.15136e+02  4.08379e-01  3.41436e+01  1.11464e-01
5.20314e+02  4.12491e-01  3.42479e+01  1.10740e-01
5.25543e+02  4.16645e-01  3.43534e+01  1.09855e-01
5.30825e+02  4.20841e-01  3.44598e+01  1.08894e-01
5.36160e+02  4.25079e-01  3.45672e+01  1.07935e-01
5.41548e+02  4.29360e-01  3.46753e+01  1.07040e-01
5.46991e+02  4.33684e-01  3.47840e+01  1.06254e-01
5.52488e+02  4.38051e-01  3.48933e+01  1.05602e-01
5.58041e+02  4.42463e-01  3.50030e+01  1.05087e-01
5.63649e+02  4.46920e-01  3.51129e+01  1.04698e-01
5.69314e+02  4.51421e-01  3.52230e+01  1.04407e-01
5.75035e+02  4.55968e-01  3.53329e+01  1.04183e-01
5.80815e+02  4.60560e-01  3.54427e+01  1.03990e-01
5.86652e+02  4.65199e-01  3.55520e+01  1.03795e-01
5.92548e+02  4.69885e-01  3.56608e+01  1.03571e-01
5.98503e+02  4.74619e-01  3.57690e+01  1.03296e-01
6.04518e+02  4.79399e-01  3.58764e+01  1.02957e-01
6.10594e+02  4.84229e-01  3.59828e+01  1.02544e-01
6.16730e+02  4.89107e-01  3.60881e+01  1.02054e-01
6.22929e+02  4.94034e-01  3.61923e+01  1.01483e-01
6.29189e+02  4.99011e-01  3.62951e+01  1.00827e-01
6.35512e+02  5.04038e-01  3.63966e+01  1.00081e-01
6.41899e+02  5.09117e-01  3.64967e+01  9.92358e-02
6.48351e+02  5.14246e-01  3.65952e+01  9.82793e-02
6.54867e+02  5.19427e-01  3.66921e+01  9.71961e-02
6.61448e+02  5.24661e-01  3.67874e+01  9.59691e-02
6.68096e+02  5.29947e-01  3.68810e+01  9.45804e-02
6.74810e+02  5.35287e-01  3.69729e+01  9.30134e-02
6.81592e+02  5.40681e-01  3.70631e+01  9.12544e-02
6.88442e+02  5.46129e-01  3.71516e+01  8.92945e-02
6.95361e+02  5.51632e-01  3.72382e+01  8.71306e-02
7.02350e+02  5.57191e-01  3.73231e+01  8.47670e-02
7.09409e+02  5.62806e-01  3.74063e+01  8.22156e-02
7.16538e+02  5.68478e-01  3.74876e+01  7.94964e-02
7.23740e+02  5.74207e-01  3.75672e+01  7.66374e-02
7.31013e+02  5.79995e-01  3.76451e+01  7.36736e-02
7.38360e+02  5.85840e-01  3.77212e+01  7.06462e-02
7.45781e+02  5.91745e-01  3.77955e+01  6.76013e-02
7.53276e+02  5.97709e-01  3.78682e+01  6.45881e-02
7.60847e+02  6.03734e-01  3.79392e+01  6.16565e-02
7.68493e+02  6.09820e-01  3.80084e+01  5.88552e-02
7.76217e+02  6.15967e-01  3.80761e+01  5.62291e-02
7.84018e+02  6.22176e-01  3.81421e+01  5.38167e-02
7.91897e+02  6.28448e-01  3.82065e+01  5.16473e-02
7.99856e+02  6.34784e-01  3.82693e+01  4.97398e-02
8.07895e+02  6.41183e-01  3.83306e+01  4.81007e-02
8.16014e+02  6.47648e-01  3.83904e+01  4.67240e-02
8.24215e+02  6.54178e-01  3.84487e+01  4.55925e-02
8.32499e+02  6.60774e-01  3.85056e+01  4.46792e-02
8.40866e+02  6.67436e-01  3.85612e+01  4.39507e-02
8.49316e+02  6.74166e-01  3.86154e+01  4.33696e-02
8.57852e+02  6.80964e-01  3.86683e+01  4.28983e-02
8.66474e+02  6.87831e-01  3.87199e+01  4.25004e-02
8.75182e+02  6.94767e-01  3.87703e+01  4.21435e-02
8.83978e+02  7.01774e-01  3.88196e+01  4.17996e-02
8.92862e+02  7.08852e-01  3.88677e+01  4.14460e-02
9.01835e+02  7.16001e-01  3.89148e+01  4.10651e-02
9.10899e+02  7.23222e-01  3.89608e+01  4.06442e-02
9.20053e+02  7.30517e-01  3.90058e+01  4.01753e-02
9.29300e+02  7.37885e-01  3.90499e+01  3.96542e-02
9.38640e+02  7.45329e-01  3.90931e+01  3.90801e-02
9.48073e+02  7.52847e-01  3.91353e+01  3.84552e-02
9.57602e+02  7.60442e-01  3.91768e+01  3.77840e-02
9.67226e+02  7.68113e-01  3.92174e+01  3.70729e-02
9.76946e+02  7.75863e-01  3.92573e+01  3.63300e-02
9.86765e+02  7.83691e-01  3.92964e+01  3.55646e-02
9.96682e+02  7.91598e-01  3.93347e+01  3.47870e-02
1.00670e+03  7.99585e-01  3.93724e+01  3.40080e-02
1.01682e+03  8.07653e-01  3.94095e+01  3.32391e-02
1.02704e+03  8.15803e-01  3.94458e+01  3.24918e-02
1.03736e+03  8.24036e-01  3.94816e+01  3.17775e-02
1.04778e+03  8.32352e-01  3.95167e+01  3.11075e-02
1.05831e+03  8.40752e-01  3.95513e+01  3.04921e-02
1.06895e+03  8.49238e-01  3.95853e+01  2.99409e-02
1.07969e+03  8.57809e-01  3.96188e+01  2.94620e-02
1.09054e+03  8.66468e-01  3.96518e+01  2.90623e-02
1.10150e+03  8.75214e-01  3.96842e+01  2.87465e-02
1.11257e+03  8.84049e-01  3.97162e+01  2.85174e-02
1.12376e+03  8.92974e-01  3.97477e+01  2.83757e-02
1.13505e+03  9.01989e-01  3.97787e+01  2.83199e-02
1.14646e+03  9.11095e-01  3.98093e+01  2.83467e-02
1.15798e+03  9.20294e-01  3.98395e+01  2.84507e-02
1.16962e+03  9.29587e-01  3.98692e+01  2.86253e-02
1.18137e+03  9.38974e-01  3.98986e+01  2.88625e-02
1.19324e+03  9.48456e-01  3.99276e+01  2.91537e-02
1.20524e+03  9.58034e-01  3.99562e+01  2.94897e-02
1.21735e+03  9.67709e-01  3.99844e+01  2.98614e-02
1.22958e+03  9.77483e-01  4.00124e+01  3.02595e-02
1.24194e+03  9.87356e-01  4.00400e+01  3.06754e-02
1.25442e+03  9.97330e-01  4.00672e+01  3.11007e-02
1.26703e+03  7.64954e+02  4.00942e+01  3.15277e-02
1.27977e+03  1.80176e+03  4.01209e+01  3.19496e-02
1.29263e+03  2.83924e+03  4.01473e+01  3.23599e-02
1.30562e+03  3.87741e+03  4.01735e+01  3.27532e-02
1.31874e+03  4.91626e+03  4.01994e+01  3.31247e-02
1.33199e+03  5.95579e+03  4.02251e+01  3.34702e-02
1.34538e+03  6.99600e+03  4.02505e+01  3.37864e-02
1.35890e+03  8.03689e+03  4.02757e+01  3.40703e-02
1.37256e+03  9.07846e+03  4.03008e+01  3.43199e-02
1.38635e+03  1.01207e+04  4.03256e+01  3.45336e-02
1.40029e+03  1.11637e+04  4.03503e+01  3.47103e-02
1.41436e+03  1.22073e+04  4.03747e+01  3.48494e-02
1.42857e+03  1.32516e+04  4.03991e+01  3.49509e-02
1.44293e+03  1.42966e+04  4.04232e+01  3.50150e-02
1.45743e+03  1.53422e+04  4.04472e+01  3.50427e-02
1.47208e+03  1.63886e+04  4.04711e+01  3.50348e-02
1.48687e+03  1.74356e+04  4.04948e+01  3.49930e-02
1.50182e+03  1.84833e+04  4.05184e+01  3.49189e-02
1.51691e+03  1.95317e+04  4.05419e+01  3.48145e-02
1.53216e+03  2.05808e+04  4.05653e+01  3.46820e-02
1.54756e+03  2.16306e+04  4.05886e+01  3.45239e-02
1.56311e+03  2.26810e+04  4.06118e+01  3.43428e-02
1.57882e+03  2.37321e+04  4.06348e+01  3.41413e-02
1.59469e+03  2.47840e+04  4.06578e+01  3.39223e-02
1.61071e+03  2.58365e+04  4.06807e+01  3.36887e-02
1.61879e+03  2.63630e+04  4.06921e+01  3.35672e-02