File: H2O_REF_ISOTHERMS/AIF/h2o_zif8_300K.aif
data_H2O_ZIF8_300K
_exptl_temperature 300
_adsnt_material_id ZIF-8
_simltn_adsorbent_filename 'data.ZIF8_Snurr_rep222'
_units_temperature K
_units_fugacity PA
_units_pressure RELATIVE
_units_loading MOL-PER-KiloGM
_units_qst KiloJ-PER-MOL
_exptl_isotherm_type absolute
_exptl_adsorptive_name 'Water'
_simltn_forcefield_adsorptive 'SPC/E Water; 10ang linear-force shift'
_simltn_forcefield_adsnt 'see adsnt file'

loop_
_adsorp_fugacity
_adsorp_pressure
_adsorp_amount
_adsorp_amount_uncertainty
8.53719e+00  6.75520e-03  9.14992e-06  5.30913e-09
8.79718e+00  6.96093e-03  9.42864e-06  5.47061e-09
9.06510e+00  7.17293e-03  9.71586e-06  5.63699e-09
9.34117e+00  7.39138e-03  1.00118e-05  5.80843e-09
9.62565e+00  7.61649e-03  1.03168e-05  5.98507e-09
9.91880e+00  7.84846e-03  1.06311e-05  6.16708e-09
1.02209e+01  8.08749e-03  1.09549e-05  6.35461e-09
1.05321e+01  8.33380e-03  1.12887e-05  6.54784e-09
1.08529e+01  8.58761e-03  1.16325e-05  6.74693e-09
1.11834e+01  8.84915e-03  1.19869e-05  6.95206e-09
1.15240e+01  9.11866e-03  1.23521e-05  7.16342e-09
1.18750e+01  9.39638e-03  1.27284e-05  7.38120e-09
1.22366e+01  9.68255e-03  1.31161e-05  7.60559e-09
1.26093e+01  9.97744e-03  1.35157e-05  7.83678e-09
1.29933e+01  1.02813e-02  1.39275e-05  8.07499e-09
1.33890e+01  1.05944e-02  1.43518e-05  8.32042e-09
1.37967e+01  1.09171e-02  1.47890e-05  8.57330e-09
1.42169e+01  1.12496e-02  1.52396e-05  8.83385e-09
1.46499e+01  1.15922e-02  1.57039e-05  9.10230e-09
1.50960e+01  1.19453e-02  1.61823e-05  9.37889e-09
1.55558e+01  1.23091e-02  1.66754e-05  9.66386e-09
1.60295e+01  1.26840e-02  1.71834e-05  9.95747e-09
1.65177e+01  1.30703e-02  1.77070e-05  1.02600e-08
1.70207e+01  1.34684e-02  1.82465e-05  1.05717e-08
1.75391e+01  1.38786e-02  1.88024e-05  1.08928e-08
1.80732e+01  1.43012e-02  1.93753e-05  1.12236e-08
1.86236e+01  1.47368e-02  1.99657e-05  1.15645e-08
1.91908e+01  1.51856e-02  2.05740e-05  1.19157e-08
1.97753e+01  1.56482e-02  2.12009e-05  1.22775e-08
2.03775e+01  1.61247e-02  2.18469e-05  1.26503e-08
2.09981e+01  1.66159e-02  2.25126e-05  1.30344e-08
2.16376e+01  1.71219e-02  2.31986e-05  1.34300e-08
2.22965e+01  1.76434e-02  2.39056e-05  1.38377e-08
2.29756e+01  1.81808e-02  2.46340e-05  1.42577e-08
2.36753e+01  1.87345e-02  2.53847e-05  1.46904e-08
2.43963e+01  1.93051e-02  2.61583e-05  1.51362e-08
2.51393e+01  1.98931e-02  2.69555e-05  1.55954e-08
2.59049e+01  2.04990e-02  2.77770e-05  1.60685e-08
2.66938e+01  2.11233e-02  2.86235e-05  1.65560e-08
2.75068e+01  2.17667e-02  2.94959e-05  1.70581e-08
2.83445e+01  2.24297e-02  3.03948e-05  1.75754e-08
2.92077e+01  2.31128e-02  3.13212e-05  1.81084e-08
3.00972e+01  2.38168e-02  3.22759e-05  1.86574e-08
3.10138e+01  2.45422e-02  3.32596e-05  1.92230e-08
3.19583e+01  2.52897e-02  3.42734e-05  1.98057e-08
3.29316e+01  2.60600e-02  3.53181e-05  2.04059e-08
3.39345e+01  2.68537e-02  3.63947e-05  2.10242e-08
3.49679e+01  2.76717e-02  3.75041e-05  2.16612e-08
3.60329e+01  2.85145e-02  3.86473e-05  2.23174e-08
3.71302e+01  2.93830e-02  3.98255e-05  2.29933e-08
3.82610e+01  3.02780e-02  4.10396e-05  2.36896e-08
3.94262e+01  3.12002e-02  4.22908e-05  2.44068e-08
4.06270e+01  3.21505e-02  4.35801e-05  2.51456e-08
4.18642e+01  3.31298e-02  4.49088e-05  2.59067e-08
4.31392e+01  3.41389e-02  4.62781e-05  2.66906e-08
4.44530e+01  3.51788e-02  4.76891e-05  2.74981e-08
4.58068e+01  3.62503e-02  4.91433e-05  2.83299e-08
4.72018e+01  3.73545e-02  5.06418e-05  2.91866e-08
4.86393e+01  3.84923e-02  5.21861e-05  3.00691e-08
5.01206e+01  3.96648e-02  5.37775e-05  3.09780e-08
5.16470e+01  4.08730e-02  5.54176e-05  3.19143e-08
5.32199e+01  4.21180e-02  5.71077e-05  3.28785e-08
5.48407e+01  4.34010e-02  5.88495e-05  3.38717e-08
5.65108e+01  4.47230e-02  6.06444e-05  3.48946e-08
5.82318e+01  4.60853e-02  6.24942e-05  3.59481e-08
6.00052e+01  4.74891e-02  6.44005e-05  3.70332e-08
6.18327e+01  4.89357e-02  6.63651e-05  3.81507e-08
6.37157e+01  5.04264e-02  6.83897e-05  3.93016e-08
6.56562e+01  5.19624e-02  7.04762e-05  4.04869e-08
6.76557e+01  5.35453e-02  7.26264e-05  4.17076e-08
6.97161e+01  5.51764e-02  7.48424e-05  4.29646e-08
7.18393e+01  5.68573e-02  7.71261e-05  4.42592e-08
7.40271e+01  5.85893e-02  7.94796e-05  4.55923e-08
7.62816e+01  6.03741e-02  8.19052e-05  4.69652e-08
7.86047e+01  6.22133e-02  8.44049e-05  4.83788e-08
8.09986e+01  6.41085e-02  8.69810e-05  4.98345e-08
8.34654e+01  6.60615e-02  8.96360e-05  5.13335e-08
8.60073e+01  6.80740e-02  9.23722e-05  5.28770e-08
8.86266e+01  7.01479e-02  9.51921e-05  5.44663e-08
9.13257e+01  7.22849e-02  9.80984e-05  5.61027e-08
9.41069e+01  7.44871e-02  1.01094e-04  5.77875e-08
9.69729e+01  7.67563e-02  1.04180e-04  5.95223e-08
9.99262e+01  7.90948e-02  1.07362e-04  6.13083e-08
1.02969e+02  8.15045e-02  1.10641e-04  6.31471e-08
1.06105e+02  8.39876e-02  1.14020e-04  6.50402e-08
1.09337e+02  8.65465e-02  1.17503e-04  6.69891e-08
1.12666e+02  8.91833e-02  1.21092e-04  6.89955e-08
1.16098e+02  9.19005e-02  1.24792e-04  7.10609e-08
1.19633e+02  9.47005e-02  1.28605e-04  7.31871e-08
1.23277e+02  9.75859e-02  1.32535e-04  7.53757e-08
1.27031e+02  1.00559e-01  1.36585e-04  7.76286e-08
1.30900e+02  1.03623e-01  1.40760e-04  7.99476e-08
1.34886e+02  1.06781e-01  1.45063e-04  8.23344e-08
1.38994e+02  1.10034e-01  1.49498e-04  8.47912e-08
1.43227e+02  1.13387e-01  1.54069e-04  8.73197e-08
1.47589e+02  1.16842e-01  1.58780e-04  8.99220e-08
1.52084e+02  1.20402e-01  1.63636e-04  9.26002e-08
1.56715e+02  1.24071e-01  1.68641e-04  9.53565e-08
1.61488e+02  1.27852e-01  1.73800e-04  9.81929e-08
1.66406e+02  1.31748e-01  1.79118e-04  1.01112e-07
1.71474e+02  1.35763e-01  1.84599e-04  1.04115e-07
1.76696e+02  1.39900e-01  1.90249e-04  1.07206e-07
1.82077e+02  1.44164e-01  1.96073e-04  1.10386e-07
1.87622e+02  1.48557e-01  2.02076e-04  1.13659e-07
1.93336e+02  1.53085e-01  2.08263e-04  1.17025e-07
1.99224e+02  1.57750e-01  2.14642e-04  1.20489e-07
2.05292e+02  1.62558e-01  2.21217e-04  1.24053e-07
2.11544e+02  1.67513e-01  2.27995e-04  1.27719e-07
2.17986e+02  1.72618e-01  2.34981e-04  1.31491e-07
2.24625e+02  1.77880e-01  2.42184e-04  1.35371e-07
2.31466e+02  1.83302e-01  2.49609e-04  1.39363e-07
2.38515e+02  1.88889e-01  2.57263e-04  1.43469e-07
2.45779e+02  1.94647e-01  2.65153e-04  1.47693e-07
2.53264e+02  2.00580e-01  2.73288e-04  1.52038e-07
2.60977e+02  2.06695e-01  2.81674e-04  1.56507e-07
2.68925e+02  2.12996e-01  2.90320e-04  1.61104e-07
2.77115e+02  2.19489e-01  2.99234e-04  1.65832e-07
2.85554e+02  2.26181e-01  3.08424e-04  1.70695e-07
2.94251e+02  2.33076e-01  3.17899e-04  1.75697e-07
3.03212e+02  2.40183e-01  3.27668e-04  1.80843e-07
3.12446e+02  2.47506e-01  3.37740e-04  1.86135e-07
3.21961e+02  2.55052e-01  3.48125e-04  1.91579e-07
3.31767e+02  2.62830e-01  3.58834e-04  1.97178e-07
3.41870e+02  2.70844e-01  3.69876e-04  2.02938e-07
3.52282e+02  2.79103e-01  3.81261e-04  2.08863e-07
3.63010e+02  2.87615e-01  3.93002e-04  2.14959e-07
3.74066e+02  2.96386e-01  4.05110e-04  2.21231e-07
3.85458e+02  3.05426e-01  4.17595e-04  2.27683e-07
3.97197e+02  3.14741e-01  4.30472e-04  2.34323e-07
4.09293e+02  3.24341e-01  4.43751e-04  2.41157e-07
4.21758e+02  3.34234e-01  4.57447e-04  2.48190e-07
4.34602e+02  3.44430e-01  4.71572e-04  2.55431e-07
4.47838e+02  3.54937e-01  4.86142e-04  2.62886e-07
4.61477e+02  3.65765e-01  5.01170e-04  2.70564e-07
4.75531e+02  3.76925e-01  5.16672e-04  2.78473e-07
4.90013e+02  3.88425e-01  5.32663e-04  2.86623e-07
5.04936e+02  4.00277e-01  5.49160e-04  2.95023e-07
5.20314e+02  4.12491e-01  5.66179e-04  3.03685e-07
5.36160e+02  4.25079e-01  5.83738e-04  3.12621e-07
5.52488e+02  4.38051e-01  6.01856e-04  3.21844e-07
5.69314e+02  4.51421e-01  6.20551e-04  3.31367e-07
5.86652e+02  4.65199e-01  6.39843e-04  3.41208e-07
6.04518e+02  4.79399e-01  6.59752e-04  3.51384e-07
6.22929e+02  4.94034e-01  6.80300e-04  3.61915e-07
6.41899e+02  5.09117e-01  7.01509e-04  3.72823e-07
6.61448e+02  5.24661e-01  7.23402e-04  3.84133e-07
6.81592e+02  5.40681e-01  7.46004e-04  3.95874e-07
7.02350e+02  5.57191e-01  7.69340e-04  4.08078e-07
7.23740e+02  5.74207e-01  7.93436e-04  4.20781e-07
7.45781e+02  5.91745e-01  8.18321e-04  4.34026e-07
7.68493e+02  6.09820e-01  8.44022e-04  4.47861e-07
7.91897e+02  6.28448e-01  8.70571e-04  4.62343e-07
8.16014e+02  6.47648e-01  8.97999e-04  4.77536e-07
8.40866e+02  6.67436e-01  9.26341e-04  4.93517e-07
8.66474e+02  6.87831e-01  9.55632e-04  5.10374e-07
8.92862e+02  7.08852e-01  9.85909e-04  5.28212e-07
9.20053e+02  7.30517e-01  1.01721e-03  5.47152e-07
9.48073e+02  7.52847e-01  1.04958e-03  5.67340e-07
9.76946e+02  7.75863e-01  1.08306e-03  5.88948e-07
1.00670e+03  7.99585e-01  1.11771e-03  6.12179e-07
1.03736e+03  8.24036e-01  1.15356e-03  6.37276e-07
1.06895e+03  8.49238e-01  1.19067e-03  6.64526e-07
1.10150e+03  8.75214e-01  1.22911e-03  6.94273e-07
1.13505e+03  9.01989e-01  1.26893e-03  7.26927e-07
1.16962e+03  9.29587e-01  1.31020e-03  7.62978e-07
1.20524e+03  9.58034e-01  1.35299e-03  8.03008e-07
1.24194e+03  9.87356e-01  1.39737e-03  8.47711e-07
1.27977e+03  1.80176e+03  1.44344e-03  8.97914e-07
1.31874e+03  4.91626e+03  1.49129e-03  9.54597e-07
1.35890e+03  8.03689e+03  1.54101e-03  1.01893e-06
1.40029e+03  1.11637e+04  1.59271e-03  1.09228e-06
1.44293e+03  1.42966e+04  1.64653e-03  1.17630e-06
1.48687e+03  1.74356e+04  1.70261e-03  1.27296e-06
1.53216e+03  2.05808e+04  1.76109e-03  1.38464e-06
1.57882e+03  2.37321e+04  1.82220e-03  1.51443e-06
1.62690e+03  2.68897e+04  1.88617e-03  1.66661e-06
1.67645e+03  3.00534e+04  1.95338e-03  1.84831e-06
1.72750e+03  3.32234e+04  2.02440e-03  2.07424e-06
1.78011e+03  3.63995e+04  2.10029e-03  2.38215e-06
1.83432e+03  3.95818e+04  2.18309e-03  2.88327e-06
1.89019e+03  4.27703e+04  2.27716e-03  3.90957e-06
1.94775e+03  4.59650e+04  2.39214e-03  6.34023e-06
2.00707e+03  4.91657e+04  2.54986e-03  1.21845e-05
2.06820e+03  5.23725e+04  2.80087e-03  2.59148e-05
2.13118e+03  5.55853e+04  3.26339e-03  5.78917e-05
2.19609e+03  5.88040e+04  4.21670e-03  1.32556e-04
2.26297e+03  6.20285e+04  6.32636e-03  3.07782e-04
2.33188e+03  6.52587e+04  1.11947e-02  7.20486e-04
2.40290e+03  6.84946e+04  2.27417e-02  1.69262e-03
2.47608e+03  7.17360e+04  5.08607e-02  3.97335e-03
2.55149e+03  7.49829e+04  1.22398e-01  9.36425e-03
2.62919e+03  7.82351e+04  3.23825e-01  2.36323e-02
2.70926e+03  8.14927e+04  1.05858e+00  1.09890e-01
2.73649e+03  8.25797e+04  1.69121e+00  4.65364e-01

loop_
_desorp_fugacity
_desorp_pressure
_desorp_amount
_desorp_amount_uncertainty
2.18513e+03  5.82671e+04  2.31640e+01  1.30377e+00
2.20709e+03  5.93410e+04  2.33642e+01  3.35675e-01
2.22928e+03  6.04155e+04  2.36256e+01  1.69174e-01
2.25168e+03  6.14906e+04  2.37781e+01  6.78629e-02
2.27431e+03  6.25664e+04  2.38758e+01  4.33568e-02
2.29717e+03  6.36429e+04  2.39545e+01  2.69873e-02
2.32025e+03  6.47199e+04  2.40185e+01  1.95200e-02
2.34357e+03  6.57976e+04  2.40748e+01  1.53026e-02
2.36713e+03  6.68759e+04  2.41264e+01  1.28741e-02
2.39092e+03  6.79549e+04  2.41748e+01  1.15191e-02
2.41494e+03  6.90344e+04  2.42210e+01  1.08157e-02
2.43922e+03  7.01146e+04  2.42655e+01  1.05073e-02
2.46373e+03  7.11954e+04  2.43086e+01  1.04399e-02
2.48849e+03  7.22768e+04  2.43507e+01  1.05216e-02
2.51350e+03  7.33588e+04  2.43919e+01  1.06982e-02
2.53876e+03  7.44413e+04  2.44323e+01  1.09380e-02
2.56428e+03  7.55245e+04  2.44720e+01  1.12225e-02
2.59005e+03  7.66083e+04  2.45111e+01  1.15410e-02
2.61608e+03  7.76927e+04  2.45498e+01  1.18875e-02
2.64237e+03  7.87777e+04  2.45879e+01  1.22585e-02
2.66893e+03  7.98632e+04  2.46255e+01  1.26520e-02
2.69575e+03  8.09494e+04  2.46628e+01  1.30665e-02
2.72284e+03  8.20361e+04  2.46996e+01  1.35005e-02
2.75021e+03  8.31234e+04  2.47361e+01  1.39522e-02
2.77785e+03  8.42112e+04  2.47721e+01  1.44189e-02
2.80577e+03  8.52997e+04  2.48079e+01  1.48970e-02
2.83396e+03  8.63887e+04  2.48432e+01  1.53820e-02
2.86245e+03  8.74782e+04  2.48783e+01  1.58679e-02
2.89121e+03  8.85684e+04  2.49129e+01  1.63480e-02
2.92027e+03  8.96591e+04  2.49473e+01  1.68149e-02
2.94962e+03  9.07503e+04  2.49813e+01  1.72607e-02
2.97926e+03  9.18421e+04  2.50150e+01  1.76773e-02
3.00921e+03  9.29345e+04  2.50483e+01  1.80572e-02
3.03945e+03  9.40274e+04  2.50813e+01  1.83930e-02
3.07000e+03  9.51209e+04  2.51140e+01  1.86789e-02
3.10085e+03  9.62149e+04  2.51464e+01  1.89097e-02
3.13201e+03  9.73095e+04  2.51784e+01  1.90822e-02
3.16349e+03  9.84046e+04  2.52101e+01  1.91943e-02
3.19529e+03  9.95003e+04  2.52415e+01  1.92460e-02
3.22740e+03  1.00596e+05  2.52726e+01  1.92384e-02
3.25983e+03  1.01693e+05  2.53034e+01  1.91746e-02
3.29260e+03  1.02790e+05  2.53338e+01  1.90587e-02
3.32569e+03  1.03888e+05  2.53640e+01  1.88963e-02
3.35911e+03  1.04987e+05  2.53939e+01  1.86937e-02
3.39287e+03  1.06086e+05  2.54236e+01  1.84579e-02
3.42697e+03  1.07185e+05  2.54529e+01  1.81962e-02
3.46141e+03  1.08285e+05  2.54820e+01  1.79161e-02
3.49620e+03  1.09386e+05  2.55109e+01  1.76248e-02
3.53134e+03  1.10487e+05  2.55395e+01  1.73287e-02
3.56683e+03  1.11588e+05  2.55680e+01  1.70338e-02
3.60267e+03  1.12690e+05  2.55962e+01  1.67449e-02
3.63888e+03  1.13793e+05  2.56242e+01  1.64657e-02
3.67545e+03  1.14896e+05  2.56520e+01  1.61988e-02
3.71239e+03  1.16000e+05  2.56797e+01  1.59455e-02
3.74970e+03  1.17104e+05  2.57072e+01  1.57059e-02
3.78739e+03  1.18209e+05  2.57345e+01  1.54792e-02
3.82545e+03  1.19315e+05  2.57617e+01  1.52636e-02
3.86390e+03  1.20420e+05  2.57887e+01  1.50567e-02
3.90273e+03  1.21527e+05  2.58156e+01  1.48554e-02
3.94195e+03  1.22634e+05  2.58423e+01  1.46566e-02
3.98157e+03  1.23741e+05  2.58689e+01  1.44571e-02
4.02159e+03  1.24850e+05  2.58954e+01  1.42538e-02
4.06200e+03  1.25958e+05  2.59217e+01  1.40441e-02
4.10283e+03  1.27067e+05  2.59479e+01  1.38258e-02
4.14406e+03  1.28177e+05  2.59740e+01  1.35976e-02
4.18571e+03  1.29287e+05  2.59999e+01  1.33587e-02
4.22778e+03  1.30398e+05  2.60257e+01  1.31092e-02
4.27027e+03  1.31509e+05  2.60513e+01  1.28502e-02
4.31318e+03  1.32621e+05  2.60768e+01  1.25836e-02
4.35653e+03  1.33734e+05  2.61021e+01  1.23117e-02
4.40032e+03  1.34846e+05  2.61273e+01  1.20381e-02
4.44454e+03  1.35960e+05  2.61523e+01  1.17664e-02
4.48921e+03  1.37074e+05  2.61771e+01  1.15009e-02
4.53433e+03  1.38189e+05  2.62018e+01  1.12458e-02
4.57990e+03  1.39304e+05  2.62263e+01  1.10051e-02
4.62593e+03  1.40419e+05  2.62507e+01  1.07828e-02
4.67242e+03  1.41536e+05  2.62749e+01  1.05818e-02
4.71938e+03  1.42652e+05  2.62989e+01  1.04043e-02
4.76681e+03  1.43770e+05  2.63228e+01  1.02515e-02
4.81471e+03  1.44887e+05  2.63465e+01  1.01234e-02
4.86310e+03  1.46006e+05  2.63700e+01  1.00187e-02
4.91198e+03  1.47125e+05  2.63934e+01  9.93533e-03
4.96134e+03  1.48244e+05  2.64167e+01  9.87001e-03
5.01121e+03  1.49364e+05  2.64397e+01  9.81896e-03
5.06157e+03  1.50485e+05  2.64627e+01  9.77792e-03
5.11244e+03  1.51606e+05  2.64855e+01  9.74251e-03
5.16382e+03  1.52727e+05  2.65081e+01  9.70841e-03
5.21572e+03  1.53849e+05  2.65307e+01  9.67159e-03
5.26814e+03  1.54972e+05  2.65530e+01  9.62845e-03
5.32108e+03  1.56095e+05  2.65753e+01  9.57593e-03
5.37456e+03  1.57219e+05  2.65974e+01  9.51161e-03
5.42857e+03  1.58343e+05  2.66194e+01  9.43370e-03
5.48313e+03  1.59468e+05  2.66413e+01  9.34106e-03
5.53824e+03  1.60593e+05  2.66631e+01  9.23319e-03
5.59390e+03  1.61719e+05  2.66847e+01  9.11021e-03
5.65012e+03  1.62845e+05  2.67063e+01  8.97281e-03
5.70690e+03  1.63972e+05  2.67277e+01  8.82223e-03
5.76426e+03  1.65100e+05  2.67489e+01  8.66023e-03
5.82219e+03  1.66228e+05  2.67701e+01  8.48904e-03
5.88070e+03  1.67356e+05  2.67911e+01  8.31138e-03
5.93981e+03  1.68485e+05  2.68121e+01  8.13038e-03
5.99950e+03  1.69614e+05  2.68328e+01  7.94962e-03
6.05980e+03  1.70744e+05  2.68535e+01  7.77305e-03
6.12070e+03  1.71875e+05  2.68741e+01  7.60497e-03
6.18221e+03  1.73006e+05  2.68945e+01  7.44997e-03
6.24435e+03  1.74137e+05  2.69147e+01  7.31280e-03
6.30710e+03  1.75270e+05  2.69349e+01  7.19827e-03
6.37049e+03  1.76402e+05  2.69549e+01  7.11100e-03
6.43451e+03  1.77535e+05  2.69748e+01  7.05525e-03
6.49918e+03  1.78669e+05  2.69946e+01  7.03462e-03
6.56450e+03  1.79803e+05  2.70142e+01  7.05187e-03
6.63048e+03  1.80937e+05  2.70338e+01  7.10867e-03
6.69711e+03  1.82072e+05  2.70532e+01  7.20555e-03
6.76442e+03  1.83208e+05  2.70724e+01  7.34187e-03
6.83240e+03  1.84344e+05  2.70916e+01  7.51590e-03
6.90107e+03  1.85480e+05  2.71106e+01  7.72501e-03
6.97043e+03  1.86617e+05  2.71296e+01  7.96590e-03
7.04048e+03  1.87755e+05  2.71484e+01  8.23479e-03
7.11124e+03  1.88893e+05  2.71671e+01  8.52768e-03
7.18271e+03  1.90032e+05  2.71857e+01  8.84047e-03
7.25490e+03  1.91171e+05  2.72042e+01  9.16911e-03
7.32781e+03  1.92310e+05  2.72227e+01  9.50972e-03
7.40145e+03  1.93450e+05  2.72410e+01  9.85860e-03
7.47584e+03  1.94591e+05  2.72593e+01  1.02123e-02
7.55097e+03  1.95732e+05  2.72775e+01  1.05676e-02
7.62686e+03  1.96873e+05  2.72956e+01  1.09215e-02
7.70351e+03  1.98015e+05  2.73137e+01  1.12713e-02
7.78093e+03  1.99158e+05  2.73317e+01  1.16144e-02
7.85913e+03  2.00300e+05  2.73497e+01  1.19484e-02
7.93812e+03  2.01444e+05  2.73676e+01  1.22713e-02
8.01790e+03  2.02588e+05  2.73854e+01  1.25809e-02
8.09848e+03  2.03732e+05  2.74032e+01  1.28754e-02
8.17987e+03  2.04877e+05  2.74210e+01  1.31529e-02
8.26208e+03  2.06022e+05  2.74387e+01  1.34119e-02
8.34512e+03  2.07168e+05  2.74564e+01  1.36505e-02
8.42899e+03  2.08315e+05  2.74741e+01  1.38673e-02
8.51370e+03  2.09462e+05  2.74917e+01  1.40607e-02
8.59926e+03  2.10609e+05  2.75093e+01  1.42292e-02
8.68569e+03  2.11757e+05  2.75269e+01  1.43714e-02
8.77298e+03  2.12905e+05  2.75444e+01  1.44859e-02
8.86115e+03  2.14054e+05  2.75619e+01  1.45711e-02
8.95021e+03  2.15203e+05  2.75794e+01  1.46258e-02
9.04016e+03  2.16353e+05  2.75968e+01  1.46487e-02
9.13101e+03  2.17503e+05  2.76143e+01  1.46385e-02
9.22278e+03  2.18654e+05  2.76317e+01  1.45941e-02
9.31547e+03  2.19805e+05  2.76491e+01  1.45145e-02